Geotek MSCL 7.9 - TN336_JPC42-52.raw created at 13:20:52 on 1/27/2016.											Geotek MSCL 7.9 - TN336_JPC42-52.out created at 13:20:30 on 1/27/2016.											
																						
																						
Core Depth	Section	Sect Depth	CTD 	Tr. Time 	PW Amp   	A Gamma  	Mag Sus  	Temp     	NC Res   		SB DEPTH	SECT NUM	SECT DEPTH	CT	PWAmp	PWVel	Den1	MS1	MS1	Imp	FP	RES
m		cm	mm	µsec		cps	SI x 10^-5	°C	mV		m		cm	cm		m/s	g/cc	SI x 10^-5	x 10^-8 (m^3/kg)			Ohm.m
																						
0.003	1	0.3	5.88	999	0	5842	12	19.8	294.6		0.003	1	0.3	10.768	0	110.8036	1.2749	10.0175	7.8577	141.2599	0.8556	1.069
0.013	1	1.3	5.62	101.21	0.0002	5245	15	19.8	373.8		0.013	1	1.3	10.742	0.0002	1451.229	1.4004	12.6088	9.0036	2032.323	0.7828	0.8218
0.023	1	2.3	6.31	96.86	0.0005	5219	17	19.79	480.6		0.023	1	2.3	10.811	0.0005	1551.744	1.3972	14.0307	10.0421	2168.066	0.7847	0.6228
0.033	1	3.3	6.37	101.36	0.0002	5194	17	19.79	583.5		0.033	1	3.3	10.817	0.0002	1458.406	1.4019	14.0084	9.9923	2044.573	0.7819	0.5027
0.043	1	4.3	5.68	999	0	5357	18	19.8	666		0.043	1	4.3	10.748	0.0005	1494.2675	1.3753	15.1064	10.9838	152.1088	0.7974	0.4345
0.053	1	5.3	1.04	94.4	0.0008	5312	19	19.8	723.8		0.053	1	5.3	10.284	0.0008	1530.129	1.4475	18.1002	12.5044	2214.873	0.7555	0.3964
0.063	1	6.3	0.38	94.1	0.0033	5350	19	19.79	761.3		0.063	1	6.3	10.218	0.0033	1527.126	1.4482	18.4394	12.7322	2211.658	0.7551	0.3749
0.073	1	7.3	0.33	94.59	0.0039	5458	19	19.79	782.7		0.073	1	7.3	10.213	0.0039	1515.282	1.4249	18.4655	12.9591	2159.139	0.7686	0.3636
0.083	1	8.3	0.16	94.45	0.0055	5416	20	19.8	795		0.083	1	8.3	10.196	0.0055	1515.909	1.4366	19.531	13.5955	2177.721	0.7618	0.3574
0.093	1	9.3	0.04	94.44	0.0099	5313	19	19.8	803		0.093	1	9.3	10.184	0.0099	1514.349	1.4615	18.6176	12.7388	2213.209	0.7474	0.3534
0.103	1	10.3	0.1	94.58	0.0118	5389	20	19.8	809.5		0.103	1	10.3	10.19	0.0118	1512.094	1.4435	19.5642	13.5538	2182.635	0.7579	0.3503
0.113	1	11.3	0.05	94.45	0.0112	5394	19	19.8	812.1		0.113	1	11.3	10.185	0.0112	1514.273	1.443	18.6124	12.898	2185.157	0.7581	0.3491
0.123	1	12.3	0.04	94.48	0.0117	5335	20	19.8	809.7		0.123	1	12.3	10.184	0.0117	1513.449	1.4565	19.5975	13.4554	2204.313	0.7503	0.3502
0.133	1	13.3	0.07	94.54	0.0103	5362	20	19.8	805.6		0.133	1	13.3	10.187	0.0103	1512.546	1.4499	19.5808	13.5045	2193.11	0.7541	0.3522
0.143	1	14.3	0.04	94.82	0.014	5350	20	19.8	801.3		0.143	1	14.3	10.184	0.014	1505.841	1.4531	19.5975	13.4868	2188.112	0.7523	0.3543
0.153	1	15.3	0.05	94.86	0.019	5308	21	19.8	797.8		0.153	1	15.3	10.185	0.019	1505.098	1.4625	20.5716	14.0661	2201.192	0.7468	0.356
0.163	1	16.3	0.04	94.94	0.0165	5264	20	19.8	796.2		0.163	1	16.3	10.184	0.0165	1503.173	1.4727	19.5975	13.3068	2213.792	0.7409	0.3568
0.173	1	17.3	0.04	95.07	0.0186	5254	21	19.81	796.2		0.173	1	17.3	10.184	0.0186	1500.295	1.4751	20.5774	13.9502	2213.023	0.7395	0.3568
0.183	1	18.3	0.05	95.24	0.0191	5197	21	19.81	795		0.183	1	18.3	10.185	0.0191	1496.694	1.4882	20.5716	13.823	2227.394	0.7319	0.3574
0.193	1	19.3	0.04	95.23	0.0159	5321	21	19.82	789.9		0.193	1	19.3	10.184	0.0159	1496.767	1.4597	20.5774	14.0973	2184.781	0.7485	0.3599
0.203	1	20.3	0.04	95.03	0.0142	5290	21	19.81	782.2		0.203	1	20.3	10.184	0.0142	1501.179	1.4668	20.5774	14.0292	2201.865	0.7443	0.3638
0.213	1	21.3	0.04	94.99	0.0156	5385	21	19.82	777.6		0.213	1	21.3	10.184	0.0156	1502.065	1.4452	20.5774	14.2384	2170.783	0.7568	0.3662
0.223	1	22.3	0.07	94.93	0.0106	5444	22	19.82	777.5		0.223	1	22.3	10.187	0.0106	1503.838	1.4316	21.5389	15.045	2152.949	0.7647	0.3662
0.233	1	23.3	0.07	94.88	0.0107	5281	21	19.82	776.6		0.233	1	23.3	10.187	0.0107	1504.949	1.4684	20.5599	14.0016	2209.857	0.7434	0.3667
0.243	1	24.3	0.1	94.96	0.0132	5291	22	19.82	775.1		0.243	1	24.3	10.19	0.0132	1503.615	1.4657	21.5206	14.6832	2203.795	0.745	0.3675
0.253	1	25.3	0.04	94.87	0.013	5313	22	19.82	776.7		0.253	1	25.3	10.184	0.013	1504.728	1.4615	21.5573	14.7502	2199.148	0.7474	0.3667
0.263	1	26.3	0.09	94.74	0.0125	5252	22	19.82	780.2		0.263	1	26.3	10.189	0.0125	1508.364	1.4748	21.5267	14.5964	2224.532	0.7397	0.3649
0.273	1	27.3	0.16	94.91	0.0103	5298	23	19.83	783.8		0.273	1	27.3	10.196	0.0103	1505.611	1.4632	22.4607	15.3504	2203.008	0.7464	0.363
0.283	1	28.3	0.15	94.94	0.0082	5111	24	19.82	781.5		0.283	1	28.3	10.195	0.0082	1504.797	1.5072	23.4438	15.555	2267.961	0.7209	0.3642
0.293	1	29.3	0.21	95.07	0.0096	5116	23	19.82	783.9		0.293	1	29.3	10.201	0.0096	1502.799	1.5051	22.4289	14.9022	2261.818	0.7221	0.363
0.303	1	30.3	0.29	94.97	0.0128	5173	24	19.83	768.7		0.303	1	30.3	10.209	0.0128	1506.196	1.4904	23.3512	15.6682	2244.764	0.7307	0.3709
0.313	1	31.3	0.34	95.14	0.0178	5150	24	19.83	722		0.313	1	31.3	10.214	0.0178	1503.164	1.4951	23.3182	15.5969	2247.32	0.7279	0.3974
0.323	1	32.3	0.35	95.29	0.0231	5080	24	19.83	708.8		0.323	1	32.3	10.215	0.0231	1500	1.5117	23.3116	15.4213	2267.482	0.7183	0.4056
0.333	1	33.3	0.4	95.5	0.0206	5023	25	19.83	697.1		0.333	1	33.3	10.22	0.0206	1496.121	1.5248	24.2487	15.9032	2281.233	0.7107	0.4131
0.343	1	34.3	0.45	95.32	0.0166	5059	25	19.83	697.2		0.343	1	34.3	10.225	0.0166	1500.807	1.5153	24.2145	15.9805	2274.102	0.7162	0.4131
0.353	1	35.3	0.5	95.34	0.0141	5110	25	19.84	686.2		0.353	1	35.3	10.23	0.0141	1501.101	1.5022	24.1804	16.0963	2255.009	0.7238	0.4204
0.363	1	36.3	0.51	95.41	0.0143	5057	26	19.83	659.2		0.363	1	36.3	10.231	0.0143	1499.707	1.5148	25.1405	16.5961	2271.829	0.7164	0.4394
0.373	1	37.3	0.6	95.62	0.0147	5049	26	19.84	657.5		0.373	1	37.3	10.24	0.0147	1496.42	1.5155	25.0768	16.5474	2267.759	0.7161	0.4407
0.383	1	38.3	0.59	95.66	0.0156	5038	26	19.83	660.9		0.383	1	38.3	10.239	0.0156	1495.399	1.5183	25.0839	16.5213	2270.432	0.7145	0.4382
0.393	1	39.3	0.64	95.75	0.0158	5005	25	19.83	663.7		0.393	1	39.3	10.244	0.0158	1494.166	1.5256	24.0852	15.7874	2279.498	0.7102	0.4361
0.403	1	40.3	0.68	95.69	0.015	5021	26	19.84	663.1		0.403	1	40.3	10.248	0.015	1496.058	1.5211	25.0204	16.449	2275.636	0.7128	0.4366
0.413	1	41.3	0.64	95.67	0.0159	4950	26	19.83	665		0.413	1	41.3	10.244	0.0159	1495.911	1.5392	25.0486	16.2739	2302.496	0.7023	0.4352
0.423	1	42.3	0.64	95.67	0.0158	5110	26	19.84	668.5		0.423	1	42.3	10.244	0.0158	1495.911	1.5002	25.0486	16.697	2244.142	0.725	0.4327
0.433	1	43.3	0.62	95.64	0.0155	5104	27	19.84	670.1		0.433	1	43.3	10.242	0.0155	1496.275	1.5019	26.0267	17.329	2247.271	0.7239	0.4316
0.443	1	44.3	0.58	95.6	0.0166	4930	29	19.83	672.4		0.443	1	44.3	10.238	0.0166	1496.565	1.5451	27.9861	18.1129	2312.328	0.6989	0.4299
0.453	1	45.3	0.49	95.65	0.0172	4992	29	19.84	660.9		0.453	1	45.3	10.229	0.0172	1494.157	1.531	28.0572	18.3256	2287.609	0.7071	0.4382
0.463	1	46.3	0.63	95.77	0.0144	5017	30	19.84	648.5		0.463	1	46.3	10.243	0.0144	1493.584	1.5228	28.9104	18.9849	2274.442	0.7118	0.4474
0.473	1	47.3	1.83	96.47	0.0058	4972	31	19.84	635.5		0.473	1	47.3	10.363	0.0058	1495.814	1.5161	28.8881	19.054	2267.833	0.7157	0.4576
0.483	1	48.3	2.67	96.05	0.0019	4971	31	19.85	626.1		0.483	1	48.3	10.447	0.0019	1517.136	1.5042	28.2249	18.7644	2282.034	0.7226	0.4651
0.493	1	49.3	2.66	96.85	0.0014	4972	32	19.85	613.3		0.493	1	49.3	10.446	0.0014	1499.569	1.5041	29.1434	19.3763	2255.462	0.7227	0.4759
0.503	1	50.3	2.82	96.25	0.0006	4900	33	19.85	594.6		0.503	1	50.3	10.462	0.0006	1514.915	1.5194	29.9221	19.6935	2301.747	0.7138	0.4924
0.513	1	51.3	2.86	96.81	0.0031	4935	33	19.85	566.4		0.513	1	51.3	10.466	0.0031	1503.304	1.5102	29.8893	19.7915	2270.3	0.7191	0.5196
0.523	1	52.3	2.99	96.93	0.0004	4904	33	19.85	522		0.523	1	52.3	10.479	0.0004	1502.581	1.5159	29.7828	19.6465	2277.822	0.7158	0.5685
0.533	1	53.3	2.76	97.7	0.0002	5005	34	19.85	454.2		0.533	1	53.3	10.456	0.0002	1482.91	1.4947	30.8798	20.66	2216.457	0.7282	0.6628
0.543	1	54.3	2.55	97.99	0.0006	5164	34	19.85	360.7		0.543	1	54.3	10.435	0.0006	1473.87	1.4602	31.0588	21.2709	2152.077	0.7482	0.8548
0.553	1	55.3	6.15	999	0	5059	33	19.85	269.2		0.553	1	55.3	10.795	0	111.0814	1.4352	27.3515	19.0571	159.4289	0.7626	1.1808
0.563	1	56.3	6.67	999	0	7179	35	19.86	227.3		0.563	1	56.3	10.847	0	111.6165	1.0437	28.6136	27.4156	116.4938	0.9897	1.423
0.573	2	0.57	6.3	999	0	5344	36	19.86	248.2		0.573	2	0.6	10.81	0	111.2357	1.3702	29.7198	21.6899	152.417	0.8003	1.2913
0.583	2	1.57	6.77	999	0	4813	37	19.86	327.5		0.583	2	1.6	10.857	0	111.7194	1.4851	30.1691	20.315	165.911	0.7337	0.9511
0.593	2	2.57	6.39	97.73	0.0004	4733	39	19.85	425.5		0.593	2	2.6	10.819	0.0004	1533.74	1.5101	32.12	21.2705	2316.058	0.7192	0.7124
0.603	2	3.57	5.92	97.9	0.0006	5348	40	19.86	502.4		0.603	2	3.6	10.772	0.0006	1523.405	1.3742	33.3562	24.2733	2093.454	0.798	0.593
0.613	2	4.57	4.23	999	0	5884	42	19.86	550.4		0.613	2	4.6	10.603	0.00045	1510.4615	1.2866	36.6467	28.4834	140.3753	0.8488	0.5362
0.623	2	5.57	0.75	95.67	0.0003	5024	44	19.86	578.6		0.623	2	5.6	10.255	0.0003	1497.518	1.5193	42.259	27.8144	2275.204	0.7139	0.5075
0.633	2	6.57	0.21	95.11	0.001	4997	45	19.86	593		0.633	2	6.6	10.201	0.001	1501.914	1.534	43.8826	28.6066	2303.941	0.7053	0.4939
0.643	2	7.57	-0.02	95.61	0.0024	5261	46	19.86	599.8		0.643	2	7.6	10.178	0.0024	1487.577	1.4743	45.151	30.6252	2193.145	0.74	0.4877
0.653	2	8.57	0.03	95.63	0.0041	5272	47	19.86	601.2		0.653	2	8.6	10.183	0.0041	1487.873	1.471	46.0672	31.316	2188.725	0.7419	0.4864
0.663	2	9.57	-0.03	95.46	0.0049	4995	49	19.85	600.3		0.663	2	9.6	10.177	0.0049	1490.699	1.5381	48.1093	31.278	2292.867	0.7029	0.4872
0.673	2	10.57	0.03	94.92	0.0082	4836	51	19.86	597.9		0.673	2	10.6	10.183	0.0082	1503.47	1.5774	49.9878	31.6899	2371.582	0.6802	0.4894
0.683	2	11.57	0.03	95.04	0.0138	4821	53	19.86	592.8		0.683	2	11.6	10.183	0.0138	1500.811	1.5813	51.9481	32.8518	2373.213	0.6779	0.4941
0.693	2	12.57	0.03	95.27	0.0094	4849	54	19.86	590.4		0.693	2	12.6	10.183	0.0094	1495.74	1.5741	52.9283	33.6254	2354.376	0.6821	0.4963
0.703	2	13.57	0.08	95.25	0.0156	4810	55	19.86	589.1		0.703	2	13.6	10.188	0.0156	1496.914	1.5834	53.8321	33.9985	2370.165	0.6767	0.4975
0.713	2	14.57	0.12	95.25	0.0156	4875	56	19.86	586.1		0.713	2	14.6	10.192	0.0156	1497.502	1.566	54.7488	34.9609	2345.092	0.6868	0.5003
0.723	2	15.57	0.16	95.25	0.0136	4774	58	19.87	583.5		0.723	2	15.6	10.196	0.0136	1498.09	1.5915	56.6399	35.5885	2384.244	0.672	0.5027
0.733	2	16.57	0.18	95.26	0.0133	4860	60	19.87	580		0.733	2	16.6	10.198	0.0133	1498.164	1.5689	58.5599	37.325	2350.493	0.6851	0.5061
0.743	2	17.57	0.22	95.35	0.0077	4903	61	19.86	578.6		0.743	2	17.6	10.202	0.0077	1496.772	1.5574	59.4685	38.1857	2331.003	0.6918	0.5074
0.753	2	18.57	0.28	95.08	0.007	4881	62	19.87	583		0.753	2	18.6	10.208	0.007	1503.609	1.562	60.341	38.6301	2348.667	0.6891	0.5032
0.763	2	19.57	0.32	94.87	0.0103	4702	63	19.86	589.6		0.763	2	19.6	10.212	0.0103	1508.865	1.6081	61.2449	38.0857	2426.377	0.6624	0.497
0.773	2	20.57	0.33	94.85	0.0105	4659	64	19.86	593.3		0.773	2	20.6	10.213	0.0105	1509.459	1.6195	62.1995	38.407	2444.547	0.6558	0.4936
0.783	2	21.57	0.38	94.86	0.0128	4699	64	19.87	592		0.783	2	21.6	10.218	0.0128	1509.975	1.6079	62.1117	38.6282	2427.946	0.6624	0.4948
0.793	2	22.57	0.39	94.96	0.0205	4683	64	19.87	588.6		0.793	2	22.6	10.219	0.0205	1507.894	1.6121	62.0942	38.5184	2430.827	0.6601	0.4979
0.803	2	23.57	0.47	94.98	0.0134	4549	65	19.87	588.8		0.803	2	23.6	10.227	0.0134	1508.63	1.6475	62.9222	38.1934	2485.408	0.6395	0.4977
0.813	2	24.57	0.48	95.05	0.0139	4559	66	19.87	594.2		0.813	2	24.6	10.228	0.0139	1507.221	1.6445	63.8722	38.8396	2478.648	0.6412	0.4928
0.823	2	25.57	0.53	95.26	0.0112	4690	67	19.87	597.8		0.823	2	25.6	10.233	0.0112	1503.305	1.608	64.7487	40.2669	2417.295	0.6624	0.4895
0.833	2	26.57	0.53	95.26	0.0135	4660	68	19.87	597.1		0.833	2	26.6	10.233	0.0135	1503.305	1.6161	65.7151	40.664	2429.417	0.6577	0.4902
0.843	2	27.57	0.6	95.29	0.01	4659	70	19.87	593.3		0.843	2	27.6	10.24	0.01	1503.671	1.6152	67.5146	41.7991	2428.752	0.6582	0.4936
0.853	2	28.57	0.63	95.36	0.0077	4669	72	19.87	589.6		0.853	2	28.6	10.243	0.0077	1502.567	1.612	69.3849	43.0415	2422.211	0.6601	0.497
0.863	2	29.57	0.66	95.48	0.0077	4629	74	19.87	588.5		0.863	2	29.6	10.246	0.0077	1500.366	1.6224	71.252	43.9179	2434.185	0.6541	0.498
0.873	2	30.57	0.63	95.46	0.0075	4627	75	19.88	584.2		0.873	2	30.6	10.243	0.0075	1500.366	1.6234	72.2759	44.521	2435.714	0.6535	0.5021
0.883	2	31.57	0.68	95.39	0.0074	4559	78	19.88	577.9		0.883	2	31.6	10.248	0.0074	1502.639	1.6413	75.0613	45.7327	2466.291	0.6431	0.5081
0.893	2	32.57	0.63	95.26	0.0066	4585	80	19.88	570.4		0.893	2	32.6	10.243	0.0066	1504.774	1.6349	77.0943	47.1549	2460.18	0.6468	0.5156
0.903	2	33.57	0.64	95.25	0.0067	4546	82	19.89	562.8		0.903	2	33.6	10.244	0.0067	1505.142	1.6456	78.9995	48.0076	2476.806	0.6406	0.5232
0.913	2	34.57	0.66	95.3	0.0067	4464	85	19.89	554.1		0.913	2	34.6	10.246	0.0067	1504.331	1.6684	81.8436	49.0561	2509.776	0.6274	0.5323
0.923	2	35.57	0.65	95.3	0.0056	4479	87	19.88	541		0.923	2	35.6	10.245	0.0056	1504.184	1.6643	83.7929	50.3485	2503.349	0.6298	0.5465
0.933	2	36.57	0.66	95.31	0.0076	4534	87	19.88	529.3		0.933	2	36.6	10.246	0.0076	1504.11	1.6486	83.7693	50.8127	2479.663	0.6389	0.5598
0.943	2	37.57	0.68	95.42	0.007	4547	88	19.89	521.1		0.943	2	37.6	10.248	0.007	1501.979	1.6446	84.6845	51.4912	2470.217	0.6412	0.5696
0.953	2	38.57	0.69	95.33	0.0074	4576	88	19.88	515.3		0.953	2	38.6	10.249	0.0074	1504.109	1.6364	84.6607	51.7347	2461.385	0.6459	0.5767
0.963	2	39.57	0.68	95.09	0.0075	4534	87	19.89	510.2		0.963	2	39.6	10.248	0.0075	1509.278	1.6483	83.7222	50.794	2487.697	0.6391	0.583
0.973	2	40.57	0.66	94.88	0.0107	4431	88	19.89	505.6		0.973	2	40.6	10.246	0.0107	1513.665	1.6778	84.7322	50.5009	2539.679	0.6219	0.5889
0.983	2	41.57	0.63	95.16	0.0136	4530	89	19.89	503.1		0.983	2	41.6	10.243	0.0136	1506.988	1.6502	85.7675	51.9742	2486.822	0.6379	0.5922
0.993	2	42.57	0.63	95.15	0.0123	4583	91	19.89	502.4		0.993	2	42.6	10.243	0.0123	1507.21	1.6355	87.6948	53.6207	2464.993	0.6465	0.593
1.003	2	43.57	0.58	95.17	0.0138	4523	92	19.89	500.5		1.003	2	43.6	10.238	0.0138	1506.031	1.653	88.7834	53.7117	2489.412	0.6363	0.5955
1.013	2	44.57	0.58	94.99	0.0134	4450	92	19.9	498		1.013	2	44.6	10.238	0.0134	1510.03	1.6737	88.7834	53.0469	2527.304	0.6243	0.5989
1.023	2	45.57	0.58	95.07	0.0144	4430	94	19.89	491.7		1.023	2	45.6	10.238	0.0144	1508.25	1.6794	90.7135	54.0143	2533.006	0.621	0.6073
1.033	2	46.57	0.58	95.08	0.0165	4505	95	19.89	487.7		1.033	2	46.6	10.238	0.0165	1508.028	1.658	91.6785	55.2937	2500.353	0.6334	0.6127
1.043	2	47.57	0.56	95.26	0.0122	4569	96	19.9	484.7		1.043	2	47.6	10.236	0.0122	1503.746	1.6405	92.6958	56.5061	2466.829	0.6436	0.617
1.053	2	48.57	0.63	95.23	0.0096	4549	97	19.91	482.9		1.053	2	48.6	10.243	0.0096	1505.438	1.6449	93.4769	56.8287	2476.276	0.641	0.6195
1.063	2	49.57	0.79	95.04	0.0116	4647	98	19.9	480.1		1.063	2	49.6	10.259	0.0116	1512.012	1.6155	94.0165	58.1979	2442.596	0.6581	0.6235
1.073	2	50.57	0.83	94.99	0.0208	4643	98	19.9	476		1.073	2	50.6	10.263	0.0208	1513.717	1.6159	93.9109	58.1163	2446.034	0.6578	0.6294
1.083	2	51.57	0.83	95.29	0.0188	4535	98	19.9	471.6		1.083	2	51.6	10.263	0.0188	1507.048	1.6456	93.9109	57.0685	2479.97	0.6406	0.636
1.093	2	52.57	0.93	95.22	0.0183	4417	98	19.9	470.4		1.093	2	52.6	10.273	0.0183	1510.069	1.6775	93.6476	55.827	2533.078	0.6221	0.6377
1.103	2	53.57	1.05	95.19	0.0118	4412	98	19.9	471.6		1.103	2	53.6	10.285	0.0118	1512.5	1.6769	93.3329	55.6565	2536.379	0.6224	0.6359
1.113	2	54.57	1.24	95.08	0.0119	4509	97	19.9	474.1		1.113	2	54.6	10.304	0.0119	1517.749	1.6463	91.8905	55.8168	2498.651	0.6402	0.6322
1.123	2	55.57	1.35	95.17	0.0093	4420	97	19.9	473.7		1.123	2	55.6	10.315	0.0093	1517.358	1.6698	91.6085	54.8631	2533.633	0.6266	0.6328
1.133	2	56.57	1.41	94.99	0.008	4452	98	19.91	477		1.133	2	56.6	10.321	0.008	1522.271	1.6597	92.398	55.6732	2526.438	0.6325	0.628
1.143	2	57.57	1.36	94.97	0.0077	4310	98	19.91	479.4		1.143	2	57.6	10.316	0.0077	1521.983	1.7017	92.5271	54.3718	2590.029	0.608	0.6245
1.153	2	58.57	1.31	94.83	0.0099	4225	100	19.9	481.9		1.153	2	58.6	10.311	0.0099	1524.394	1.7282	94.5473	54.709	2634.438	0.5927	0.6209
1.163	2	59.57	1.25	94.81	0.0093	4317	101	19.91	485.1		1.163	2	59.6	10.305	0.0093	1523.958	1.7015	95.6531	56.2175	2592.988	0.6082	0.6165
1.173	2	60.57	1.16	94.6	0.0097	4332	102	19.91	486		1.173	2	60.6	10.296	0.0097	1527.37	1.6985	96.8437	57.0164	2594.274	0.6099	0.6151
1.183	2	61.57	1.1	94.82	0.0091	4308	101	19.91	487		1.183	2	61.6	10.29	0.0091	1521.514	1.7066	96.0554	56.2833	2596.681	0.6052	0.6138
1.193	2	62.57	1	94.81	0.0089	4298	101	19.91	486.9		1.193	2	62.6	10.28	0.0089	1520.26	1.7113	96.325	56.2879	2601.609	0.6025	0.6139
1.203	2	63.57	0.94	94.64	0.0102	4347	100	19.92	488.1		1.203	2	63.6	10.274	0.0102	1523.202	1.6977	95.5319	56.2705	2585.979	0.6104	0.6123
1.213	2	64.57	0.84	94.62	0.0095	4302	99	19.92	488.2		1.213	2	64.6	10.264	0.0095	1522.171	1.7128	94.8425	55.374	2607.115	0.6016	0.6121
1.223	2	65.57	0.82	94.55	0.0103	4315	98	19.92	489.7		1.223	2	65.6	10.262	0.0103	1523.456	1.7092	93.9372	54.9595	2603.905	0.6037	0.61
1.233	2	66.57	0.77	94.56	0.0105	4314	96	19.91	488.4		1.233	2	66.6	10.257	0.0105	1522.488	1.7103	92.1495	53.8779	2603.973	0.6031	0.6119
1.243	2	67.57	0.72	94.54	0.0123	4344	95	19.92	488.3		1.243	2	67.6	10.252	0.0123	1522.197	1.7023	91.318	53.6453	2591.17	0.6077	0.612
1.253	2	68.57	0.72	94.48	0.0172	4347	93	19.92	487.7		1.253	2	68.6	10.252	0.0172	1523.555	1.7014	89.3955	52.5433	2592.128	0.6083	0.6128
1.263	2	69.57	0.62	94.49	0.0161	4345	92	19.93	486.6		1.263	2	69.6	10.242	0.0161	1521.843	1.7036	88.6835	52.0558	2592.644	0.6069	0.6143
1.273	2	70.57	0.57	94.54	0.0127	4373	90	19.92	488.7		1.273	2	70.6	10.237	0.0127	1519.97	1.6962	86.8778	51.2193	2578.165	0.6113	0.6114
1.283	2	71.57	0.49	94.81	0.0079	4475	88	19.91	489.9		1.283	2	71.6	10.229	0.0079	1512.718	1.668	85.139	51.0426	2523.213	0.6276	0.6098
1.293	2	72.57	0.42	94.56	0.0075	4393	89	19.92	491.1		1.293	2	72.6	10.222	0.0075	1517.293	1.6928	86.2766	50.9663	2568.501	0.6132	0.6082
1.303	2	73.57	0.42	94.82	0.0133	4431	88	19.92	491.7		1.303	2	73.6	10.222	0.0133	1511.459	1.6818	85.3072	50.7246	2541.932	0.6196	0.6073
1.313	2	74.57	0.35	94.83	0.0094	4408	89	19.93	491.2		1.313	2	74.6	10.215	0.0094	1510.201	1.6896	86.4473	51.1644	2551.636	0.6151	0.608
1.323	2	75.57	0.32	94.81	0.0082	4399	90	19.93	491.2		1.323	2	75.6	10.212	0.0082	1510.204	1.6927	87.4928	51.6876	2556.356	0.6133	0.608
1.333	2	76.57	0.22	94.81	0.0083	4564	90	19.92	489		1.333	2	76.6	10.202	0.0083	1508.725	1.6473	87.7404	53.2627	2485.344	0.6396	0.611
1.343	2	77.57	0.18	95.21	0.0109	4653	91	19.93	490.3		1.343	2	77.6	10.198	0.0109	1499.265	1.6235	88.8158	54.7066	2434.048	0.6534	0.6092
1.353	2	78.57	0.18	95.13	0.0104	4413	92	19.93	490.1		1.353	2	78.6	10.198	0.0104	1501.03	1.691	89.7918	53.1011	2538.182	0.6143	0.6095
1.363	2	79.57	0.08	94.89	0.0081	4521	94	19.92	492.6		1.363	2	79.6	10.188	0.0081	1504.874	1.6616	92.0039	55.3694	2500.557	0.6313	0.6061
1.373	2	80.57	0.07	94.86	0.014	4509	98	19.92	489		1.373	2	80.6	10.187	0.014	1505.394	1.6652	95.9461	57.6186	2506.775	0.6292	0.6109
1.383	2	81.57	0.03	94.97	0.011	4483	99	19.93	488.1		1.383	2	81.6	10.183	0.011	1502.36	1.6732	97.0351	57.9921	2513.82	0.6246	0.6123
1.393	2	82.57	0	94.91	0.0106	4378	103	19.93	488.9		1.393	2	82.6	10.18	0.0106	1503.249	1.7042	101.0416	59.2892	2561.861	0.6066	0.6111
1.403	2	83.57	-0.02	94.51	0.0077	4125	104	19.94	488.4		1.403	2	83.6	10.178	0.0077	1511.883	1.7822	102.0805	57.2773	2694.505	0.5614	0.6118
1.413	2	84.57	-0.07	93.68	0.0062	4041	101	19.94	489.7		1.413	2	84.6	10.173	0.0062	1530.004	1.8103	99.2766	54.8389	2769.816	0.5451	0.61
1.423	2	85.57	-0.07	93.33	0.0039	4006	95	19.94	490		1.423	2	85.6	10.173	0.0039	1538.101	1.8219	93.379	51.2534	2802.281	0.5383	0.6096
1.433	2	86.57	-0.1	94.1	0.0042	4458	87	19.94	489		1.433	2	86.6	10.17	0.0042	1519.952	1.6826	85.5883	50.8679	2557.413	0.6192	0.6109
1.443	2	87.57	-0.08	94.95	0.0133	4712	80	19.94	488.8		1.443	2	87.6	10.172	0.0133	1501.181	1.6117	78.6572	48.8032	2419.49	0.6603	0.6113
1.453	2	88.57	-0.07	95.33	0.0076	4681	76	19.94	487.9		1.453	2	88.6	10.173	0.0076	1492.956	1.6199	74.7032	46.116	2418.434	0.6555	0.6125
