Geotek MSCL 7.9 - TN336_JPC32-36.raw created at 18:51:28 on 1/24/2016.											Geotek MSCL 7.9 - TN336_JPC32-36.out created at 18:52:17 on 1/24/2016.											
																						
																						
Core Depth	Section	Sect Depth	CTD 	Tr. Time 	PW Amp   	A Gamma  	Mag Sus  	Temp     	NC Res   		SB DEPTH	SECT NUM	SECT DEPTH	CT	PWAmp	PWVel	Den1	MS1	MS1	Imp	FP	RES
m		cm	mm	µsec		cps	SI x 10^-5	°C	mV		m		cm	cm		m/s	g/cc	SI x 10^-5	x 10^-8 (m^3/kg)			Ohm.m
																						
0.003	1	0.3	7.16	999	0	6675	13	20.15	254		0.003	1	0.3	10.896	0	112.0331	1.08	10.492	9.7148	120.9964	0.9687	1.3162
0.013	1	1.3	7.04	101.85	0.0001	5009	16	20.15	309.5		0.013	1	1.3	10.884	0.0001	1443.119	1.4253	12.9539	9.0885	2056.896	0.7684	1.0638
0.023	1	2.3	7.66	97.77	0.0005	4932	19	20.15	406.1		0.023	1	2.3	10.946	0.0005	1534.343	1.4364	15.1355	10.537	2203.944	0.7619	0.7937
0.033	1	3.3	7.32	97.78	0.001	4865	21	20.15	493.4		0.033	1	3.3	10.912	0.001	1529.362	1.4579	16.8778	11.5766	2229.7	0.7495	0.6436
0.043	1	4.3	6.69	98.11	0.0003	4892	23	20.15	552.7		0.043	1	4.3	10.849	0.0003	1513.532	1.4595	18.7933	12.877	2208.926	0.7486	0.5695
0.053	1	5.3	2.31	94.78	0.0011	4737	25	20.16	590.9		0.053	1	5.3	10.411	0.0011	1523.19	1.5631	22.9891	14.7074	2380.89	0.6885	0.5298
0.063	1	6.3	1.44	95.62	0.0036	4700	25	20.15	613.3		0.063	1	6.3	10.324	0.0036	1492.123	1.5867	23.5512	14.8429	2367.549	0.6748	0.509
0.073	1	7.3	0.58	94.22	0.0019	4617	26	20.15	626.2		0.073	1	7.3	10.238	0.0019	1510.252	1.624	25.091	15.45	2452.665	0.6531	0.4978
0.083	1	8.3	0.14	93.81	0.0062	4570	27	20.15	628.1		0.083	1	8.3	10.194	0.0062	1512.912	1.6449	26.3818	16.0385	2488.597	0.641	0.4961
0.093	1	9.3	0.14	94.36	0.0123	4745	27	20.15	626.2		0.093	1	9.3	10.194	0.0123	1500.662	1.5941	26.3818	16.5497	2392.204	0.6705	0.4977
0.103	1	10.3	0.19	94.66	0.0227	4774	26	20.15	624.2		0.103	1	10.3	10.199	0.0227	1494.797	1.5851	25.3688	16.0042	2369.45	0.6757	0.4995
0.113	1	11.3	0.18	94.55	0.0185	4730	26	20.15	625		0.113	1	11.3	10.198	0.0185	1497.064	1.5977	25.3759	15.8825	2391.908	0.6684	0.4988
0.123	1	12.3	0.25	94.58	0.0182	4799	25	20.16	624.4		0.123	1	12.3	10.205	0.0182	1497.432	1.5772	24.3517	15.4398	2361.747	0.6803	0.4993
0.133	1	13.3	0.29	94.88	0.0199	4797	23	20.15	622.9		0.133	1	13.3	10.209	0.0199	1491.454	1.5771	22.3782	14.1891	2352.228	0.6803	0.5006
0.143	1	14.3	0.39	94.93	0.0206	4781	24	20.16	619		0.143	1	14.3	10.219	0.0206	1491.825	1.5801	23.2853	14.7369	2357.183	0.6786	0.504
0.153	1	15.3	0.39	95.04	0.0214	4873	23	20.15	616.1		0.153	1	15.3	10.219	0.0214	1489.433	1.5546	22.3151	14.3542	2315.484	0.6934	0.5065
0.163	1	16.3	0.45	95.14	0.016	4881	23	20.16	615.3		0.163	1	16.3	10.225	0.016	1488.139	1.5515	22.2774	14.3585	2308.864	0.6952	0.5073
0.173	1	17.3	0.44	94.94	0.0161	4916	22	20.16	612.6		0.173	1	17.3	10.224	0.0161	1492.337	1.5422	21.3148	13.8214	2301.424	0.7006	0.5097
0.183	1	18.3	0.45	95.18	0.0205	4940	23	20.16	610.9		0.183	1	18.3	10.225	0.0205	1487.273	1.5355	22.2774	14.5078	2283.774	0.7044	0.5112
0.193	1	19.3	0.49	95.25	0.0167	4828	22	20.16	610.4		0.193	1	19.3	10.229	0.0167	1486.341	1.5655	21.2847	13.5966	2326.795	0.6871	0.5117
0.203	1	20.3	0.54	95.23	0.0138	4862	23	20.16	607.5		0.203	1	20.3	10.234	0.0138	1487.5	1.5553	22.2209	14.2869	2313.563	0.693	0.5143
0.213	1	21.3	0.55	95	0.0174	4857	23	20.16	608.3		0.213	1	21.3	10.235	0.0174	1492.635	1.5566	22.2146	14.2717	2323.368	0.6923	0.5136
0.223	1	22.3	0.55	95.01	0.0163	4846	23	20.17	610.8		0.223	1	22.3	10.235	0.0163	1492.417	1.5596	22.2146	14.244	2327.535	0.6905	0.5113
0.233	1	23.3	0.63	95.15	0.015	4792	23	20.16	613.5		0.233	1	23.3	10.243	0.015	1490.541	1.5733	22.1646	14.088	2345.061	0.6825	0.5089
0.243	1	24.3	0.67	95.26	0.0185	4718	23	20.16	616.1		0.243	1	24.3	10.247	0.0185	1488.74	1.5935	22.1397	13.8938	2372.302	0.6708	0.5066
0.253	1	25.3	0.68	95.38	0.0129	4712	23	20.16	617.8		0.253	1	25.3	10.248	0.0129	1486.295	1.595	22.1335	13.8764	2370.708	0.6699	0.5051
0.263	1	26.3	0.81	95.29	0.0145	4775	23	20.17	620.3		0.263	1	26.3	10.261	0.0145	1490.125	1.5753	22.0527	13.9993	2347.355	0.6814	0.5029
0.273	1	27.3	0.79	95.01	0.024	4722	21	20.17	621.1		0.273	1	27.3	10.259	0.024	1495.917	1.5905	20.1464	12.6667	2379.252	0.6726	0.5022
0.283	1	28.3	0.84	95.14	0.0171	4677	22	20.17	621.3		0.283	1	28.3	10.264	0.0171	1493.815	1.6025	21.0761	13.1516	2393.911	0.6656	0.502
0.293	1	29.3	0.89	95.33	0.0073	4610	23	20.16	622.2		0.293	1	29.3	10.269	0.0073	1490.421	1.6211	22.0032	13.5726	2416.195	0.6548	0.5012
0.303	1	30.3	0.89	95.36	0.005	4659	23	20.17	619		0.303	1	30.3	10.269	0.005	1489.772	1.6069	22.0032	13.6926	2393.975	0.663	0.504
0.313	1	31.3	0.97	95.29	0.0041	4668	22	20.16	611.6		0.313	1	31.3	10.277	0.0041	1492.448	1.6031	20.9993	13.0992	2392.548	0.6653	0.5106
0.323	1	32.3	1.02	95.21	0.0057	4641	22	20.17	606		0.323	1	32.3	10.282	0.0057	1494.911	1.6101	20.9699	13.024	2406.956	0.6612	0.5156
0.333	1	33.3	0.97	94.99	0.0076	4674	22	20.17	596.8		0.333	1	33.3	10.277	0.0076	1498.979	1.6014	20.9993	13.1133	2400.437	0.6663	0.5242
0.343	1	34.3	1.01	95.25	0.0077	4595	22	20.17	577.7		0.343	1	34.3	10.281	0.0077	1493.897	1.6236	20.9758	12.919	2425.551	0.6533	0.5429
0.353	1	35.3	1.02	95.25	0.0088	4673	21	20.17	565		0.353	1	35.3	10.282	0.0088	1494.042	1.6009	20.0167	12.5035	2391.796	0.6665	0.5561
0.363	1	36.3	1.02	95.11	0.0059	4657	21	20.17	551.9		0.363	1	36.3	10.282	0.0059	1497.088	1.6055	20.0167	12.4677	2403.551	0.6639	0.5704
0.373	1	37.3	1.08	95.36	0.0056	4727	21	20.17	544.2		0.373	1	37.3	10.288	0.0056	1492.529	1.5846	19.9831	12.6108	2365.063	0.676	0.5791
0.383	1	38.3	1.02	95.42	0.0056	4706	20	20.17	539.8		0.383	1	38.3	10.282	0.0056	1490.361	1.5915	19.0636	11.9786	2371.871	0.672	0.5841
0.393	1	39.3	1.03	95.24	0.0059	4595	20	20.18	534		0.393	1	39.3	10.283	0.0059	1494.405	1.6233	19.0582	11.7402	2425.904	0.6535	0.5909
0.403	1	40.3	1.02	95.15	0.0071	4640	19	20.17	530.1		0.403	1	40.3	10.282	0.0071	1496.216	1.6104	18.1104	11.246	2409.49	0.661	0.5956
0.413	1	41.3	0.97	95.34	0.0072	4706	20	20.18	523.1		0.413	1	41.3	10.277	0.0072	1491.366	1.5922	19.0903	11.9895	2374.625	0.6715	0.6043
0.423	1	42.3	0.95	95.69	0.0055	4744	20	20.17	521.1		0.423	1	42.3	10.275	0.0055	1483.54	1.5818	19.101	12.0754	2346.683	0.6776	0.6068
0.433	1	43.3	1	95.7	0.0068	4627	20	20.18	519.6		0.433	1	43.3	10.28	0.0068	1484.048	1.6145	19.0743	11.8146	2395.949	0.6587	0.6087
0.443	1	44.3	1	95.62	0.0073	4685	19	20.18	517.2		0.443	1	44.3	10.28	0.0073	1485.764	1.5978	18.1205	11.3412	2373.904	0.6683	0.6117
0.453	1	45.3	1.01	95.67	0.0076	4724	19	20.18	516.6		0.453	1	45.3	10.281	0.0076	1484.835	1.5865	18.1155	11.4183	2355.734	0.6749	0.6125
0.463	1	46.3	0.95	95.74	0.0082	4724	20	20.18	518.1		0.463	1	46.3	10.275	0.0082	1482.47	1.5875	19.101	12.0325	2353.354	0.6743	0.6106
0.473	1	47.3	1.01	95.77	0.0046	4685	20	20.18	516.3		0.473	1	47.3	10.281	0.0046	1482.694	1.5976	19.0689	11.9359	2368.768	0.6684	0.6128
0.483	1	48.3	1.01	95.75	0.0041	4734	20	20.19	515.3		0.483	1	48.3	10.281	0.0041	1483.122	1.5837	19.0689	12.0407	2348.828	0.6765	0.6141
0.493	1	49.3	1.08	95.77	0.0058	4726	20	20.18	514.6		0.493	1	49.3	10.288	0.0058	1483.704	1.5849	19.0315	12.0082	2351.498	0.6758	0.615
0.503	1	50.3	1.13	95.67	0.0074	4687	19	20.18	516.3		0.503	1	50.3	10.293	0.0074	1486.568	1.5952	18.0547	11.3183	2371.341	0.6699	0.6128
0.513	1	51.3	1.2	95.76	0.0081	4678	20	20.18	518.5		0.513	1	51.3	10.3	0.0081	1485.648	1.5967	18.9677	11.8796	2372.078	0.669	0.6101
0.523	1	52.3	1.27	95.58	0.0074	4555	20	20.18	522.5		0.523	1	52.3	10.307	0.0074	1490.528	1.6313	18.9306	11.6047	2431.487	0.6489	0.605
0.533	1	53.3	1.4	95.6	0.0085	4642	20	20.18	524.9		0.533	1	53.3	10.32	0.0085	1491.976	1.6039	18.862	11.7602	2392.955	0.6648	0.602
0.543	1	54.3	1.52	95.66	0.0084	4724	20	20.18	527.8		0.543	1	54.3	10.332	0.0084	1492.417	1.5787	18.799	11.9079	2356.073	0.6794	0.5985
0.553	1	55.3	1.52	96.03	0.0079	4709	20	20.19	532		0.553	1	55.3	10.332	0.0079	1484.483	1.5829	18.799	11.8761	2349.825	0.677	0.5934
0.563	1	56.3	1.47	96.01	0.0061	4718	20	20.19	535.2		0.563	1	56.3	10.327	0.0061	1484.191	1.5812	18.8252	11.906	2346.73	0.678	0.5896
0.573	1	57.3	1.52	95.79	0.008	4746	21	20.19	539.2		0.573	1	57.3	10.332	0.008	1489.619	1.5725	19.7389	12.5524	2342.467	0.683	0.5848
0.583	1	58.3	1.47	95.86	0.0101	4699	21	20.19	540.9		0.583	1	58.3	10.327	0.0101	1487.397	1.5865	19.7665	12.459	2359.787	0.6749	0.5828
0.593	1	59.3	1.21	95.73	0.0126	4617	21	20.2	541.1		0.593	1	59.3	10.301	0.0126	1486.436	1.6141	19.9105	12.3355	2399.223	0.6589	0.5826
0.603	1	60.3	1.16	95.77	0.0086	4667	21	20.2	540.3		0.603	1	60.3	10.296	0.0086	1484.857	1.6004	19.9384	12.4582	2376.411	0.6668	0.5835
0.613	1	61.3	1.11	95.65	0.009	4631	21	20.21	538.3		0.613	1	61.3	10.291	0.009	1486.709	1.6116	19.9663	12.3893	2395.956	0.6603	0.5859
0.623	1	62.3	1.13	95.65	0.0128	4662	22	20.21	536.6		0.623	1	62.3	10.293	0.0128	1486.998	1.6023	20.9054	13.0469	2382.664	0.6657	0.5879
0.633	1	63.3	1.11	95.8	0.011	4729	23	20.21	535.1		0.633	1	63.3	10.291	0.011	1483.494	1.5836	21.8679	13.8092	2349.225	0.6766	0.5897
0.643	1	64.3	1.11	95.85	0.0091	4710	22	20.21	534.5		0.643	1	64.3	10.291	0.0091	1482.426	1.5889	20.9171	13.1641	2355.497	0.6735	0.5904
0.653	1	65.3	1.06	96	0.0096	4727	23	20.2	532.4		0.653	1	65.3	10.286	0.0096	1478.511	1.5849	21.8985	13.8169	2343.307	0.6758	0.5929
0.663	1	66.3	1.06	95.84	0.0122	4766	23	20.2	533.9		0.663	1	66.3	10.286	0.0122	1481.919	1.574	21.8985	13.913	2332.477	0.6822	0.5911
0.673	1	67.3	0.96	95.87	0.0128	4752	24	20.2	531.6		0.673	1	67.3	10.276	0.0128	1479.839	1.5794	22.9148	14.5084	2337.274	0.679	0.5939
0.683	1	68.3	0.96	95.86	0.0108	4778	24	20.21	528.1		0.683	1	68.3	10.276	0.0108	1480.052	1.5721	22.9148	14.5756	2326.846	0.6832	0.598
0.693	1	69.3	0.96	95.94	0.0106	4854	24	20.21	526.6		0.693	1	69.3	10.276	0.0106	1478.348	1.5512	22.9148	14.7727	2293.159	0.6954	0.6
0.703	1	70.3	1	96.07	0.0099	4758	24	20.22	525.8		0.703	1	70.3	10.28	0.0099	1476.163	1.5771	22.8891	14.5133	2328.078	0.6803	0.6009
0.713	1	71.3	1.01	95.92	0.0146	4773	24	20.22	526.4		0.713	1	71.3	10.281	0.0146	1479.494	1.5728	22.8827	14.5493	2326.899	0.6828	0.6001
0.723	1	72.3	1.03	95.75	0.0146	4747	24	20.21	524.3		0.723	1	72.3	10.283	0.0146	1483.41	1.5797	22.8699	14.477	2343.402	0.6788	0.6028
0.733	1	73.3	1.06	95.65	0.0118	4677	24	20.2	521.4		0.733	1	73.3	10.286	0.0118	1485.987	1.5991	22.8506	14.2895	2376.273	0.6676	0.6064
0.743	1	74.3	1.17	95.63	0.0155	4652	25	20.21	520		0.743	1	74.3	10.297	0.0155	1488.006	1.6046	23.7296	14.7886	2387.629	0.6644	0.6081
0.753	1	75.3	1.17	95.64	0.0135	4612	25	20.21	519		0.753	1	75.3	10.297	0.0135	1487.791	1.6162	23.7296	14.6827	2404.506	0.6577	0.6093
0.763	1	76.3	1.26	95.41	0.0075	4457	25	20.21	513.2		0.763	1	76.3	10.306	0.0075	1494.056	1.6608	23.6699	14.2521	2481.331	0.6318	0.6168
0.773	1	77.3	1.35	95.32	0.0087	4590	25	20.21	509.8		0.773	1	77.3	10.315	0.0087	1497.314	1.6197	23.6104	14.5766	2425.273	0.6556	0.6212
0.783	1	78.3	1.42	95.8	0.0065	4697	24	20.22	506		0.783	1	78.3	10.322	0.0065	1487.963	1.5879	22.6218	14.2467	2362.671	0.6741	0.6263
0.793	1	79.3	1.46	95.87	0.0066	4630	24	20.22	480.1		0.793	1	79.3	10.326	0.0066	1487.039	1.6064	22.5965	14.0665	2388.794	0.6633	0.6628
0.803	1	80.3	1.52	95.85	0.0066	4583	23	20.22	482		0.803	1	80.3	10.332	0.0066	1488.332	1.6191	21.6188	13.3521	2409.8	0.656	0.66
0.813	1	81.3	1.62	95.75	0.0063	4582	22	20.22	486.7		0.813	1	81.3	10.342	0.0063	1491.922	1.6179	20.6213	12.7461	2413.712	0.6567	0.6531
0.823	1	82.3	1.72	95.75	0.0059	4681	21	20.22	489		0.823	1	82.3	10.352	0.0059	1493.364	1.5878	19.6293	12.3627	2371.147	0.6741	0.6498
0.833	1	83.3	1.87	95.84	0.0074	4580	21	20.22	491.3		0.833	1	83.3	10.367	0.0074	1493.589	1.6145	19.5476	12.1073	2411.453	0.6586	0.6465
0.843	1	84.3	1.87	95.88	0.0072	4692	21	20.22	494.5		0.843	1	84.3	10.367	0.0072	1492.729	1.5824	19.5476	12.3533	2362.059	0.6773	0.642
0.853	1	85.3	1.98	96	0.0071	4638	20	20.22	497		0.853	1	85.3	10.378	0.0071	1491.735	1.5961	18.5601	11.6286	2380.906	0.6693	0.6385
0.863	1	86.3	2.03	96.09	0.0082	4673	20	20.23	499.9		0.863	1	86.3	10.383	0.0082	1490.525	1.5853	18.5343	11.6913	2362.954	0.6756	0.6344
0.873	1	87.3	2.47	96.58	0.0052	4704	19	20.23	500.9		0.873	1	87.3	10.427	0.0052	1486.386	1.5699	17.3947	11.0801	2333.482	0.6845	0.6331
0.883	1	88.3	2.58	96.37	0.004	4656	19	20.23	503.7		0.883	1	88.3	10.438	0.004	1492.422	1.5818	17.342	10.9637	2360.673	0.6776	0.6294
0.893	1	89.3	2.64	96.17	0.0035	4577	19	20.23	502.9		0.893	1	89.3	10.444	0.0035	1497.563	1.6035	17.3134	10.7973	2401.343	0.665	0.6304
0.903	1	90.3	4.98	97.84	0.0004	4630	19	20.24	500.1		0.903	1	90.3	10.678	0.0004	1495.309	1.5535	16.2467	10.4584	2322.895	0.6941	0.6342
0.913	1	91.3	5.1	97.96	0.0001	4587	19	20.23	494.5		0.913	1	91.3	10.69	0.0001	1494.478	1.5638	16.1945	10.356	2337.027	0.6881	0.642
0.923	1	92.3	4.6	999	0	4530	19	20.24	483		0.923	1	92.3	10.64	0	109.4009	1.5874	16.4135	10.3398	173.6646	0.6744	0.6585
0.933	1	93.3	4.39	999	0	4554	20	20.24	463.9		0.933	1	93.3	10.619	0	109.1849	1.5837	17.3755	10.9718	172.9107	0.6765	0.6878
0.943	1	94.3	3.89	999	0	4592	21	20.23	434.4		0.943	1	94.3	10.569	0	108.6708	1.5803	18.4929	11.7025	171.7273	0.6785	0.7381
0.953	1	95.3	3.65	96.1	0.0012	4602	21	20.24	388.4		0.953	1	95.3	10.545	0.0012	1513.564	1.581	18.614	11.7736	2392.937	0.6781	0.8328
0.963	1	96.3	3.59	95.72	0.0192	4575	21	20.24	319.5		0.963	1	96.3	10.539	0.0192	1520.999	1.5896	18.6444	11.7289	2417.812	0.6731	1.0277
0.973	1	97.3	5.94	97.03	0.0023	4532	21	20.24	236		0.973	1	97.3	10.774	0.0023	1526.062	1.5671	17.5027	11.1688	2391.498	0.6861	1.4246
0.983	1	98.3	7.12	999	0	4609	22	20.24	176.2		0.983	1	98.3	10.892	0	111.9919	1.5287	17.7743	11.6271	171.2019	0.7084	1.9521
0.993	2	0.01	7.39	999	0	8893	23	20.24	166.6		0.993	2	0	10.919	0	112.2696	0.7567	18.4514	24.3828	84.9587	1.1562	2.0724
1.003	2	1.01	7.71	999	0	4600	23	20.24	206.6		1.003	2	1	10.951	0	112.5986	1.5229	18.2981	12.0151	171.4797	0.7118	1.6442
1.013	2	2.01	7.88	102.38	0.0001	4568	23	20.24	273.1		1.013	2	2	10.968	0.0001	1444.108	1.5294	18.2174	11.9116	2208.589	0.708	1.217
1.023	2	3.01	7.51	999	0	4555	24	20.24	344.2		1.023	2	3	10.931	0	112.3929	1.5382	19.1934	12.4781	172.8794	0.7029	0.9485
1.033	2	4.01	6.93	999	0	4649	25	20.25	402.5		1.033	2	4	10.873	0	111.7966	1.5204	20.299	13.3511	169.9753	0.7132	0.8013
1.043	2	5.01	3.03	99.38	0.0001	4722	25	20.25	440.2		1.043	2	5	10.483	0.0001	1437.012	1.5565	22.538	14.4798	2236.726	0.6923	0.7276
1.053	2	6.01	2.18	100.19	0.0002	4684	26	20.25	467.2		1.053	2	6	10.398	0.0002	1409.707	1.5799	23.9948	15.1874	2227.22	0.6787	0.6825
1.063	2	7.01	0.75	105.34	0.0002	4653	26	20.25	479.4		1.063	2	7	10.255	0.0002	1299.582	1.6109	24.9712	15.5017	2093.453	0.6608	0.6637
1.073	2	8.01	0.53	100.01	0.0004	4727	26	20.25	486.4		1.073	2	8	10.233	0.0004	1390.731	1.5931	25.1263	15.7718	2215.6	0.671	0.6535
1.083	2	9.01	0.24	105.75	0.0007	4731	26	20.25	489.2		1.083	2	9	10.204	0.0007	1286.435	1.5965	25.3329	15.8677	2053.804	0.6691	0.6494
1.093	2	10.01	0.29	93.92	0.0012	4709	26	20.25	489.7		1.093	2	10	10.209	0.0012	1512.669	1.602	25.2971	15.791	2423.29	0.6659	0.6488
1.103	2	11.01	0.29	100.49	0.0013	4654	26	20.25	491.1		1.103	2	11	10.209	0.0013	1378.477	1.6178	25.2971	15.6364	2230.147	0.6567	0.6468
1.113	2	12.01	0.39	93.59	0.0018	4690	26	20.25	494.4		1.113	2	12	10.219	0.0018	1521.59	1.6059	25.2258	15.7085	2443.473	0.6636	0.6421
1.123	2	13.01	0.39	94.07	0.0036	4622	26	20.25	491.2		1.123	2	13	10.219	0.0036	1510.792	1.6256	25.2258	15.5181	2455.894	0.6522	0.6467
1.133	2	14.01	0.45	94.24	0.0038	4615	27	20.25	491.1		1.133	2	14	10.225	0.0038	1507.89	1.6267	26.1517	16.0769	2452.825	0.6516	0.6467
1.143	2	15.01	0.49	94.47	0.0023	4603	27	20.25	490.1		1.143	2	15	10.229	0.0023	1503.38	1.6295	26.1222	16.0304	2449.822	0.6499	0.6482
1.153	2	16.01	0.59	94.01	0.0058	4567	27	20.25	490		1.153	2	16	10.239	0.0058	1515.093	1.6386	26.0487	15.8973	2482.578	0.6447	0.6484
1.163	2	17.01	0.64	93.89	0.0047	4531	27	20.25	490.2		1.163	2	17	10.244	0.0047	1518.529	1.6485	26.012	15.7794	2503.267	0.6389	0.6481
1.173	2	18.01	0.74	93.76	0.0077	4376	27	20.24	491.9		1.173	2	18	10.254	0.0077	1522.947	1.6942	25.9389	15.3101	2580.236	0.6124	0.6456
1.183	2	19.01	0.79	93.9	0.0043	4353	28	20.25	492.6		1.183	2	19	10.259	0.0043	1520.528	1.7006	26.8619	15.7953	2585.842	0.6087	0.6447
1.193	2	20.01	0.88	94.43	0.0067	4599	27	20.25	493.3		1.193	2	20	10.268	0.0067	1510	1.6245	25.8371	15.9044	2453.031	0.6528	0.6437
1.203	2	21.01	0.93	94.99	0.0039	4719	27	20.25	493.4		1.203	2	21	10.273	0.0039	1498.396	1.5892	25.8009	16.2353	2381.219	0.6733	0.6435
1.213	2	22.01	0.96	94.7	0.0021	4714	27	20.25	496.4		1.213	2	22	10.276	0.0021	1505.2	1.5901	25.7791	16.212	2393.467	0.6728	0.6393
1.223	2	23.01	0.98	94.98	0.0017	4596	26	20.25	499.9		1.223	2	23	10.278	0.0017	1499.344	1.6238	24.8104	15.2791	2434.666	0.6532	0.6345
1.233	2	24.01	1.02	94.88	0.0026	4629	26	20.25	503.8		1.233	2	24	10.282	0.0026	1502.118	1.6136	24.7826	15.3588	2423.78	0.6592	0.6292
1.243	2	25.01	1.01	95.14	0.0045	4573	26	20.26	509.6		1.243	2	25	10.281	0.0045	1496.289	1.6301	24.7896	15.2074	2439.103	0.6496	0.6215
1.253	2	26.01	1.04	95.07	0.0026	4528	26	20.26	512.2		1.253	2	26	10.284	0.0026	1498.252	1.643	24.7688	15.0757	2461.573	0.6421	0.6182
1.263	2	27.01	1.07	95.26	0.0027	4568	26	20.26	512.1		1.263	2	27	10.287	0.0027	1494.552	1.6306	24.7479	15.177	2437.052	0.6493	0.6183
1.273	2	28.01	1.02	94.9	0.0059	4543	24	20.26	512.7		1.273	2	28	10.282	0.0059	1501.679	1.6388	22.8763	13.959	2460.979	0.6445	0.6174
1.283	2	29.01	1.1	95.18	0.0077	4589	25	20.26	513.1		1.283	2	29	10.29	0.0077	1496.727	1.624	23.7761	14.6407	2430.65	0.6531	0.6169
1.293	2	30.01	1.11	95.11	0.0063	4601	26	20.26	514.5		1.293	2	30	10.291	0.0063	1498.398	1.6203	24.7202	15.2565	2427.868	0.6553	0.6151
1.303	2	31.01	1.11	95.18	0.0092	4604	26	20.27	506.9		1.303	2	31	10.291	0.0092	1496.873	1.6194	24.7202	15.2647	2424.085	0.6558	0.6251
1.313	2	32.01	1.14	95.24	0.0078	4559	26	20.26	502.1		1.313	2	32	10.294	0.0078	1496.004	1.6322	24.6995	15.1329	2441.733	0.6484	0.6315
1.323	2	33.01	1.16	95.23	0.0124	4607	25	20.26	499.4		1.323	2	33	10.296	0.0124	1496.511	1.6178	23.7362	14.6722	2421.014	0.6567	0.6351
1.333	2	34.01	1.17	95.4	0.0101	4572	25	20.26	494.9		1.333	2	34	10.297	0.0101	1492.968	1.6279	23.7296	14.5771	2430.347	0.6509	0.6414
1.343	2	35.01	1.12	95.34	0.006	4563	25	20.26	491.2		1.343	2	35	10.292	0.006	1493.542	1.6313	23.7628	14.5667	2436.425	0.6489	0.6466
1.353	2	36.01	1.07	95.32	0.0046	4567	25	20.26	485.8		1.353	2	36	10.287	0.0046	1493.25	1.6309	23.7961	14.5906	2435.37	0.6491	0.6544
1.363	2	37.01	1.02	95.11	0.0085	4607	25	20.27	475.6		1.363	2	37	10.282	0.0085	1497.088	1.62	23.8295	14.7098	2425.245	0.6555	0.6695
1.373	2	38.01	0.97	95.13	0.0072	4599	25	20.27	465.9		1.373	2	38	10.277	0.0072	1495.924	1.6231	23.8629	14.702	2428.036	0.6537	0.6845
1.383	2	39.01	0.95	95.07	0.0063	4520	25	20.27	460.7		1.383	2	39	10.275	0.0063	1496.941	1.6468	23.8763	14.4987	2465.152	0.6399	0.6929
1.393	2	40.01	0.97	95.21	0.0058	4598	24	20.26	456.2		1.393	2	40	10.277	0.0058	1494.184	1.6234	22.9084	14.1114	2425.649	0.6535	0.7002
1.403	2	41.01	0.89	94.99	0.0058	4447	24	20.26	451.4		1.403	2	41	10.269	0.0058	1497.812	1.6698	22.9599	13.7498	2501.103	0.6265	0.7083
1.413	2	42.01	0.85	94.61	0.0053	4462	24	20.27	447.2		1.413	2	42	10.265	0.0053	1505.573	1.6659	22.9857	13.7977	2508.152	0.6288	0.7154
1.423	2	43.01	0.85	94.53	0.0045	4463	25	20.27	445.5		1.423	2	43	10.265	0.0045	1507.342	1.6656	23.9434	14.3752	2510.64	0.629	0.7184
1.433	2	44.01	0.8	94.65	0.0047	4475	24	20.27	443		1.433	2	44	10.26	0.0047	1503.958	1.6628	23.018	13.8431	2500.737	0.6306	0.7228
1.443	2	45.01	0.79	95.06	0.006	4596	23	20.27	444.8		1.443	2	45	10.259	0.006	1494.827	1.6268	22.0651	13.5633	2431.828	0.6515	0.7196
1.453	2	46.01	0.75	95.27	0.0058	4554	22	20.27	446		1.453	2	46	10.255	0.0058	1489.686	1.6399	21.1295	12.8849	2442.879	0.6439	0.7175
1.463	2	47.01	0.7	95.44	0.0039	4546	21	20.27	448.9		1.463	2	47	10.25	0.0039	1485.292	1.643	20.1974	12.2927	2440.395	0.6421	0.7125
