Geotek MSCL 7.9 - TN336_BB35-40.raw created at 8:23:44 on 1/25/2016.											Geotek MSCL 7.9 - TN336_BB35-40_redo.out created at 14:13:59 on 1/25/2016.											
																						
																						
Core Depth	Section	Sect Depth	CTD 	Tr. Time 	PW Amp   	A Gamma  	Mag Sus  	Temp     	NC Res   		SB DEPTH	SECT NUM	SECT DEPTH	CT	PWAmp	PWVel	Den1	MS1	MS1	Imp	FP	RES
m		cm	mm	µsec		cps	SI x 10^-5	°C	mV		m		cm	cm		m/s	g/cc	SI x 10^-5	x 10^-8 (m^3/kg)			Ohm.m
																						
0.001	1	0.1	6.32	999	0	6742	16	17.86	282		0.001	1	0.1	10.812	0	111.1694	1.0768	13.2018	12.2606	119.7037	0.9706	1.1759
0.011	1	1.1	5.92	96.87	0.0002	5062	20	17.86	339.2		0.011	1	1.1	10.772	0.0002	1529.245	1.4269	16.6781	11.688	2182.146	0.7674	0.9636
0.021	1	2.1	5.86	97.58	0.0046	4975	22	17.85	439.6		0.021	1	2.1	10.766	0.0046	1513.141	1.4495	18.3752	12.6769	2193.29	0.7544	0.7287
0.031	1	3.1	5.92	96.94	0.0014	4941	24	17.87	537.8		0.031	1	3.1	10.772	0.0014	1527.726	1.4573	20.0137	13.7333	2226.379	0.7498	0.5865
0.041	1	4.1	5.76	97.95	0.0007	5054	24	17.89	607.2		0.041	1	4.1	10.756	0.0007	1503.915	1.431	20.099	14.0449	2152.176	0.7651	0.5146
0.051	1	5.1	2	94.69	0.0027	4980	26	17.88	652		0.051	1	5.1	10.38	0.0027	1520.656	1.5021	24.1147	16.0541	2284.157	0.7238	0.4766
0.061	1	6.1	1.28	95.17	0.0054	5045	25	17.88	674.8		0.061	1	6.1	10.308	0.0054	1499.564	1.4956	23.6567	15.8178	2242.712	0.7276	0.4593
0.071	1	7.1	0.76	95.02	0.0022	5128	26	17.87	686.4		0.071	1	7.1	10.256	0.0022	1495.262	1.4817	24.9642	16.8479	2215.587	0.7357	0.4509
0.081	1	8.1	0.59	94.9	0.0137	5092	25	17.88	694.3		0.081	1	8.1	10.239	0.0137	1495.399	1.4935	24.1191	16.1499	2233.306	0.7289	0.4454
0.091	1	9.1	0.58	94.62	0.0188	5065	25	17.88	703.1		0.091	1	9.1	10.238	0.0188	1501.393	1.5006	24.1259	16.0776	2252.977	0.7247	0.4394
0.101	1	10.1	0.63	94.56	0.031	4863	25	17.88	709.8		0.101	1	10.1	10.243	0.031	1503.449	1.5537	24.092	15.5062	2335.904	0.6939	0.4349
0.111	1	11.1	0.58	94.6	0.0356	4807	25	17.88	713		0.111	1	11.1	10.238	0.0356	1501.834	1.5699	24.1259	15.3679	2357.714	0.6845	0.4328
0.121	1	12.1	0.53	94.81	0.0278	4888	25	17.88	712.8		0.121	1	12.1	10.233	0.0278	1496.49	1.5484	24.16	15.6032	2317.155	0.697	0.433
0.131	1	13.1	0.53	94.96	0.0267	4970	24	17.89	709.9		0.131	1	13.1	10.233	0.0267	1493.215	1.5263	23.1936	15.1957	2279.129	0.7098	0.4349
0.141	1	14.1	0.53	95.08	0.0262	5009	23	17.89	711.5		0.141	1	14.1	10.233	0.0262	1490.604	1.516	22.2272	14.6618	2259.74	0.7158	0.4338
0.151	1	15.1	0.47	95.16	0.0301	5023	23	17.89	715.5		0.151	1	15.1	10.227	0.0301	1487.996	1.5132	22.2648	14.7138	2251.622	0.7174	0.4311
0.161	1	16.1	0.47	95.14	0.0324	5061	23	17.89	720.5		0.161	1	16.1	10.227	0.0324	1488.43	1.5032	22.2648	14.8111	2237.476	0.7232	0.428
0.171	1	17.1	0.48	95.24	0.0403	5062	22	17.89	724.4		0.171	1	17.1	10.228	0.0403	1486.412	1.5028	21.2908	14.167	2233.838	0.7234	0.4255
0.181	1	18.1	0.52	95.28	0.0287	5070	22	17.89	725.5		0.181	1	18.1	10.232	0.0287	1486.129	1.5002	21.2668	14.1762	2229.449	0.725	0.4248
0.191	1	19.1	0.58	95.33	0.0286	4997	21	17.9	728.2		0.191	1	19.1	10.238	0.0286	1485.922	1.5184	20.2658	13.3467	2256.247	0.7144	0.4231
0.201	1	20.1	0.63	95.31	0.022	5002	21	17.9	721.3		0.201	1	20.1	10.243	0.022	1487.079	1.5164	20.2373	13.346	2254.939	0.7156	0.4275
0.211	1	21.1	0.68	95.33	0.0219	5023	22	17.89	718.5		0.211	1	21.1	10.248	0.0219	1487.373	1.5101	21.1711	14.0198	2246.067	0.7192	0.4293
0.221	1	22.1	0.74	95.26	0.0242	5013	21	17.89	712.3		0.221	1	22.1	10.254	0.0242	1489.757	1.5118	20.1747	13.3446	2252.263	0.7182	0.4333
0.231	1	23.1	0.84	95.25	0.0252	4958	22	17.9	706.9		0.231	1	23.1	10.264	0.0252	1491.427	1.5249	21.0761	13.8213	2274.285	0.7106	0.4368
0.241	1	24.1	0.93	95.31	0.0212	4862	22	17.9	678.4		0.241	1	24.1	10.273	0.0212	1491.434	1.5494	21.0229	13.5682	2310.876	0.6964	0.4566
0.251	1	25.1	0.96	95.4	0.0213	4846	23	17.91	675.2		0.251	1	25.1	10.276	0.0213	1489.923	1.5534	21.96	14.1372	2314.374	0.6941	0.459
0.261	1	26.1	1.08	95.26	0.0192	4931	22	17.91	672.9		0.261	1	26.1	10.288	0.0192	1494.697	1.5285	20.9347	13.6958	2284.714	0.7085	0.4606
0.271	1	27.1	0.9	95.34	0.0263	4898	22	17.9	674.3		0.271	1	27.1	10.27	0.0263	1490.35	1.5401	21.0406	13.6618	2295.3	0.7018	0.4596
0.281	1	28.1	1.02	95.5	0.0203	4937	22	17.9	672.8		0.281	1	28.1	10.282	0.0203	1488.635	1.5278	20.9699	13.7253	2274.386	0.7089	0.4607
0.291	1	29.1	1.1	95.48	0.0183	4920	23	17.91	677.6		0.291	1	29.1	10.29	0.0183	1490.224	1.5312	21.874	14.2856	2281.826	0.707	0.4572
0.301	1	30.1	1.09	95.29	0.0159	4872	23	17.91	673.4		0.301	1	30.1	10.289	0.0159	1494.191	1.5443	21.8801	14.1683	2307.483	0.6994	0.4603
0.311	1	31.1	1.49	95.38	0.0181	4870	22	17.91	641.8		0.311	1	31.1	10.329	0.0181	1498.042	1.5389	20.6962	13.449	2305.282	0.7025	0.4848
0.321	1	32.1	1.38	95.61	0.0176	4872	23	17.91	636.6		0.321	1	32.1	10.318	0.0176	1491.471	1.54	21.7034	14.0935	2296.809	0.7019	0.489
0.331	1	33.1	1.32	95.13	0.0062	4882	22	17.91	634.3		0.331	1	33.1	10.312	0.0062	1501.019	1.5382	20.7946	13.5192	2308.794	0.7029	0.4909
0.341	1	34.1	1.85	95.68	0.0119	4849	22	17.91	632.3		0.341	1	34.1	10.365	0.0119	1496.751	1.5392	20.4899	13.312	2303.798	0.7023	0.4926
0.351	1	35.1	3.85	96.61	0.0006	4903	23	17.92	623.7		0.351	1	35.1	10.565	0.0006	1505.415	1.4958	20.2762	13.5555	2251.787	0.7275	0.4999
0.361	1	36.1	3.58	96.85	0.0013	4856	23	17.92	608.7		0.361	1	36.1	10.538	0.0013	1496.45	1.5121	20.4257	13.5085	2262.729	0.7181	0.5132
0.371	1	37.1	3.75	999	0	4755	23	17.92	582.4		0.371	1	37.1	10.555	0.00145	1502.247	1.5368	20.3314	13.2293	166.7888	0.7037	0.5383
0.381	1	38.1	3.19	96.05	0.0016	4741	23	17.92	546.2		0.381	1	38.1	10.499	0.0016	1508.044	1.5489	20.6443	13.3285	2335.795	0.6967	0.5768
0.391	1	39.1	2.89	95.4	0.0011	4697	23	17.92	497.7		0.391	1	39.1	10.469	0.0011	1517.906	1.5656	20.8148	13.2954	2376.374	0.687	0.6376
0.401	1	40.1	2.77	95.63	0.0089	4648	22	17.91	429.8		0.401	1	40.1	10.457	0.0089	1511.127	1.5812	19.9755	12.6334	2389.344	0.678	0.7467
0.411	1	41.1	2.58	95.54	0.006	4565	20	17.92	340.5		0.411	1	41.1	10.438	0.006	1510.346	1.6079	18.2548	11.3531	2428.496	0.6625	0.9597
0.421	1	42.1	5.04	96.5	0.0021	4621	18	17.93	246.6		0.421	1	42.1	10.684	0.0021	1524.761	1.5551	15.3668	9.8816	2371.151	0.6931	1.3585
0.431	1	43.1	6.34	999	0	4761	16	17.94	183.6		0.431	1	43.1	10.814	0	111.1899	1.4984	13.1949	8.8057	166.6111	0.726	1.8669
0.441	2	0.23	6.73	999	0	11773	13	17.93	161.6		0.441	2	0.2	10.853	0	111.5909	0.4631	10.6111	22.9117	51.6813	1.3265	2.142
0.451	2	1.23	7.07	999	0	14521	11	17.93	167.3		0.451	2	1.2	10.887	0	111.9405	0.2491	8.8988	35.7195	27.8878	1.4506	2.064
0.461	2	2.23	7.92	999	0	14286	11	17.93	188.4		0.461	2	2.2	10.972	0	112.8145	0.2633	8.7036	33.0519	29.7076	1.4424	1.8157
0.471	2	3.23	7.89	999	0	9721	12	17.93	214.5		0.471	2	3.2	10.969	0	112.7837	0.6579	9.5022	14.4425	74.2043	1.2135	1.5792
0.481	2	4.23	7.37	999	0	6963	14	17.94	252		0.481	2	4.2	10.917	0	112.249	1.0294	11.2372	10.9163	115.5486	0.998	1.3274
0.491	2	5.23	3.07	999	0	6039	15	17.94	308.3		0.491	2	5.2	10.487	0	107.8277	1.2439	13.508	10.8597	134.1232	0.8736	1.0682
0.501	2	6.23	2.09	999	0	6055	17	17.94	371.5		0.501	2	6.2	10.389	0	106.8201	1.2523	15.728	12.5592	133.7723	0.8687	0.8737
0.511	2	7.23	0.7	999	0	5976	17	17.94	425.1		0.511	2	7.2	10.25	0	105.3909	1.2858	16.3503	12.7157	135.5159	0.8493	0.7556
0.521	2	8.23	0.53	145.63	0	6006	18	17.94	466.4		0.521	2	8.2	10.233	0	858.4731	1.2817	17.3952	13.5725	1100.264	0.8517	0.6838
0.531	2	9.23	0.53	121.38	0.0002	6051	18	17.95	487		0.531	2	9.2	10.233	0.0002	1077.725	1.2722	17.3952	13.6729	1371.123	0.8572	0.6526
0.541	2	10.23	0.48	121.35	0.0003	5894	19	17.93	493.8		0.541	2	10.2	10.228	0.0003	1077.539	1.3061	18.3875	14.0781	1407.38	0.8375	0.6429
0.551	2	11.23	0.42	121.27	0.0004	5725	19	17.94	497		0.551	2	11.2	10.222	0.0004	1077.815	1.3439	18.4186	13.705	1448.512	0.8156	0.6385
0.561	2	12.23	0.48	121.23	0.0003	5845	19	17.94	498.2		0.561	2	12.2	10.228	0.0003	1078.903	1.3167	18.3875	13.9647	1420.6	0.8314	0.6368
0.571	2	13.23	0.49	120.51	0.0005	5734	19	17.94	497.2		0.571	2	13.2	10.229	0.0005	1087.266	1.341	18.3823	13.7078	1458.031	0.8173	0.6382
0.581	2	14.23	0.42	120.43	0.0005	5670	20	17.94	501.1		0.581	2	14.2	10.222	0.0005	1087.447	1.3563	19.388	14.2949	1474.892	0.8084	0.6329
0.591	2	15.23	0.5	120.93	0.0004	5552	21	17.95	505.1		0.591	2	15.2	10.23	0.0004	1082.54	1.3822	20.3115	14.6948	1496.315	0.7934	0.6274
0.601	2	16.23	0.47	121.18	0.0004	5539	22	17.95	509.4		0.601	2	16.2	10.227	0.0004	1079.367	1.3857	21.2968	15.3695	1495.625	0.7914	0.6218
0.611	2	17.23	0.51	121.55	0.0002	5592	22	17.96	510.5		0.611	2	17.2	10.231	0.0002	1075.589	1.3729	21.2727	15.4952	1476.633	0.7988	0.6203
0.621	2	18.23	0.59	121.35	0.0002	5462	23	17.96	509.4		0.621	2	18.2	10.239	0.0002	1078.698	1.4021	22.1896	15.8263	1512.411	0.7819	0.6218
0.631	2	19.23	0.6	121.36	0.0002	5534	24	17.95	511.1		0.631	2	19.2	10.24	0.0002	1078.69	1.3851	23.1479	16.7126	1494.043	0.7917	0.6195
0.641	2	20.23	0.63	121.82	0.0002	5510	25	17.96	510.2		0.641	2	20.2	10.243	0.0002	1073.802	1.3902	24.092	17.3293	1492.845	0.7887	0.6207
0.651	2	21.23	0.71	121.56	0.0001	5487	25	17.96	511.1		0.651	2	21.2	10.251	0.0001	1077.578	1.3945	24.0378	17.237	1502.729	0.7862	0.6196
0.661	2	22.23	0.69	121.48	0.0001	5279	26	17.96	510.2		0.661	2	22.2	10.249	0.0001	1078.275	1.4449	25.0134	17.3121	1557.946	0.757	0.6207
0.671	2	23.23	0.73	126.43	0.0001	5169	26	17.96	507.4		0.671	2	23.2	10.253	0.0001	1025.3	1.4717	24.9853	16.9766	1508.984	0.7414	0.6244
0.681	2	24.23	0.81	126.59	0.0001	5222	26	17.96	502.2		0.681	2	24.2	10.261	0.0001	1024.461	1.4573	24.9291	17.1065	1492.936	0.7498	0.6313
0.691	2	25.23	0.78	119.05	0.0001	5241	27	17.96	496.9		0.691	2	25.2	10.258	0.0001	1107.536	1.453	25.9098	17.8321	1609.232	0.7523	0.6386
0.701	2	26.23	0.77	119.84	0.0001	5090	26	17.96	494.6		0.701	2	26.2	10.257	0.0001	1098.062	1.4913	24.9572	16.7347	1637.591	0.7301	0.6418
0.711	2	27.23	0.82	119.51	0.0001	4730	26	17.96	497.2		0.711	2	27.2	10.262	0.0001	1102.492	1.5878	24.9221	15.6963	1750.502	0.6741	0.6382
0.721	2	28.23	0.86	119.35	0.0001	4615	26	17.96	502.5		0.721	2	28.2	10.266	0.0001	1104.821	1.6202	24.8941	15.3652	1789.992	0.6554	0.6309
0.731	2	29.23	0.87	119.01	0.0001	4673	27	17.98	509.2		0.731	2	29.2	10.267	0.0001	1108.987	1.6032	25.8444	16.1202	1777.958	0.6652	0.622
0.741	2	30.23	0.86	130.09	0.0001	5167	26	17.97	513.1		0.741	2	30.2	10.266	0.0001	990.3531	1.4704	24.8941	16.9303	1456.205	0.7422	0.617
0.751	2	31.23	0.81	129.94	0.0001	5086	26	17.97	511.2		0.751	2	31.2	10.261	0.0001	991.3051	1.4918	24.9291	16.7108	1478.825	0.7298	0.6194
0.761	2	32.23	0.86	117.11	0.0002	5118	26	17.96	515.2		0.761	2	32.2	10.266	0.0002	1132.113	1.4829	24.8941	16.788	1678.754	0.735	0.6143
0.771	2	33.23	0.96	120.45	0.0002	5061	25	17.96	517		0.771	2	33.2	10.276	0.0002	1092.959	1.4961	23.8696	15.9548	1635.152	0.7273	0.612
0.781	2	34.23	0.81	120.63	0.0001	5102	25	17.97	521.2		0.781	2	34.2	10.261	0.0001	1089.278	1.4877	23.9703	16.1126	1620.493	0.7322	0.6067
0.791	2	35.23	0.81	120.66	0.0002	5068	25	17.97	521.1		0.791	2	35.2	10.261	0.0002	1088.931	1.4965	23.9703	16.0181	1629.531	0.7271	0.6068
0.801	2	36.23	0.98	117.51	0.0003	5100	25	17.98	518.2		0.801	2	36.2	10.278	0.0003	1128.458	1.4857	23.8562	16.0569	1676.583	0.7333	0.6105
0.811	2	37.23	0.92	120.98	0.0002	5069	25	17.98	513.7		0.811	2	37.2	10.272	0.0002	1086.409	1.4946	23.8964	15.9886	1623.735	0.7282	0.6162
0.821	2	38.23	0.97	117.42	0.0002	5008	26	17.98	508.9		0.821	2	38.2	10.277	0.0002	1129.465	1.5098	24.8174	16.438	1705.222	0.7194	0.6225
0.831	2	39.23	1.07	112.12	0.0003	4975	26	17.98	503.8		0.831	2	39.2	10.287	0.0003	1200.49	1.517	24.7479	16.3139	1821.129	0.7152	0.6292
0.841	2	40.23	1.03	116.9	0.0002	4893	27	17.98	495.5		0.841	2	40.2	10.283	0.0002	1136.62	1.5395	25.7286	16.7122	1749.84	0.7021	0.6406
0.851	2	41.23	0.99	111.81	0.0003	4774	27	17.98	486.5		0.851	2	41.2	10.279	0.0003	1203.912	1.5728	25.7575	16.3769	1893.506	0.6828	0.6534
0.861	2	42.23	1.05	116.77	0.0002	4663	28	17.98	476.1		0.861	2	42.2	10.285	0.0002	1138.477	1.6033	26.6666	16.6324	1825.31	0.6651	0.6687
0.871	2	43.23	0.98	116.24	0.0002	4847	29	17.99	463.9		0.871	2	43.2	10.278	0.0002	1144.416	1.5528	27.6732	17.8218	1777.021	0.6944	0.6877
0.881	2	44.23	0.99	115.61	0.0002	4766	29	17.98	454.5		0.881	2	44.2	10.279	0.0002	1152.613	1.575	27.6654	17.565	1815.398	0.6815	0.7031
0.891	2	45.23	0.97	116.15	0.0002	4796	29	17.99	443.3		0.891	2	45.2	10.277	0.0002	1145.452	1.567	27.681	17.6652	1794.901	0.6862	0.7222
0.901	2	46.23	0.95	116.48	0.0004	4937	29	17.99	433.6		0.901	2	46.2	10.275	0.0004	1141.033	1.5289	27.6965	18.1156	1744.496	0.7083	0.7397
0.911	2	47.23	0.94	117.16	0.0002	4809	29	17.99	429.6		0.911	2	47.2	10.274	0.0002	1132.371	1.5638	27.7043	17.7156	1770.842	0.688	0.7471
0.921	2	48.23	0.9	116.66	0.0003	4522	30	17.99	427.7		0.921	2	48.2	10.27	0.0003	1138.202	1.647	28.6918	17.4207	1874.615	0.6398	0.7506
0.931	2	49.23	1.14	116.11	0.0006	4346	30	17.99	425.9		0.931	2	49.2	10.294	0.0006	1147.859	1.697	28.4994	16.7936	1947.957	0.6108	0.7541
0.941	2	50.23	1.13	126.35	0.0003	4331	30	17.99	425.8		0.941	2	50.2	10.293	0.0003	1030.124	1.7019	28.5074	16.7501	1753.19	0.6079	0.7543
0.951	2	51.23	0.97	117.42	0.0003	4351	29	18	427		0.951	2	51.2	10.277	0.0003	1129.465	1.6983	27.681	16.2995	1918.137	0.6101	0.7519
0.961	2	52.23	1.12	125.05	0.0002	4436	28	17.98	427.8		0.961	2	52.2	10.292	0.0002	1043.602	1.6695	26.6143	15.9418	1742.258	0.6268	0.7504
0.971	2	53.23	1.16	129.98	0.0001	4883	28	17.99	433.9		0.971	2	53.2	10.296	0.0001	994.3022	1.5403	26.5845	17.2597	1531.495	0.7017	0.7391
0.981	2	54.23	1.2	130.84	0.0001	5003	27	17.99	444.6		0.981	2	54.2	10.3	0.0001	986.4956	1.5077	25.6064	16.9838	1487.34	0.7206	0.7199
0.991	2	55.23	1.33	119.19	0.0002	4974	27	18	451.7		0.991	2	55.2	10.313	0.0002	1111.794	1.5134	25.5135	16.8581	1682.62	0.7173	0.7078
1.001	2	56.23	1.43	118.03	0.0003	5052	27	17.99	458		1.001	2	56.2	10.323	0.0003	1126.965	1.4916	25.4424	17.0572	1680.972	0.7299	0.6973
1.011	2	57.23	1.42	120.51	0.0003	4943	27	18	464.5		1.011	2	57.2	10.322	0.0003	1097.151	1.5203	25.4495	16.7396	1668.017	0.7133	0.6868
1.021	2	58.23	1.48	117.79	0.0003	4915	27	18	463.3		1.021	2	58.2	10.328	0.0003	1130.473	1.5269	25.4069	16.6396	1726.119	0.7095	0.6887
1.031	2	59.23	1.52	120.57	0.0003	4940	27	18.01	464.4		1.031	2	59.2	10.332	0.0003	1097.514	1.5196	25.3786	16.7004	1667.829	0.7137	0.687
1.041	2	60.23	1.42	119.93	0.0003	4793	26	18	465.1		1.041	2	60.2	10.322	0.0003	1103.957	1.561	24.5069	15.6997	1723.252	0.6897	0.6859
1.051	2	61.23	1.52	119.52	0.0003	4548	26	18	464.3		1.051	2	61.2	10.332	0.0003	1109.894	1.6294	24.4387	14.9985	1808.472	0.65	0.6871
1.061	2	62.23	1.42	119.84	0.0002	4722	26	18.01	461.5		1.061	2	62.2	10.322	0.0002	1105.021	1.5808	24.5069	15.503	1746.806	0.6782	0.6915
1.071	2	63.23	1.28	127.08	0.0007	4874	25	18.01	460.8		1.071	2	63.2	10.308	0.0007	1024.143	1.5409	23.6567	15.3524	1578.116	0.7013	0.6928
1.081	2	64.23	1.31	119.11	0.0006	4869	24	18.01	461.4		1.081	2	64.2	10.311	0.0006	1112.538	1.5418	22.6914	14.7173	1715.334	0.7008	0.6918
1.091	2	65.23	1.26	119.07	0.0007	4805	23	18.01	462.2		1.091	2	65.2	10.306	0.0007	1112.478	1.5601	21.7763	13.9584	1735.56	0.6902	0.6904
1.101	2	66.23	1.22	119.59	0.0004	4810	24	18.01	465.3		1.101	2	66.2	10.302	0.0004	1105.839	1.5593	22.7485	14.5888	1724.347	0.6907	0.6855
1.111	2	67.23	1.09	116.08	0.0004	4864	23	18.01	464.7		1.111	2	67.2	10.289	0.0004	1147.685	1.5465	21.8801	14.1484	1774.87	0.6981	0.6865
1.121	2	68.23	1.07	115.94	0.0003	4792	23	18.01	461		1.121	2	68.2	10.287	0.0003	1149.257	1.5666	21.8924	13.9748	1800.387	0.6864	0.6923
1.131	2	69.23	0.99	119.34	0.0006	4858	23	18.01	459.4		1.131	2	69.2	10.279	0.0006	1106.34	1.5496	21.9415	14.1593	1714.404	0.6963	0.695
1.141	2	70.23	1	119.29	0.0007	4874	23	18.02	457.3		1.141	2	70.2	10.28	0.0007	1107.043	1.5451	21.9354	14.1967	1710.504	0.6989	0.6984
1.151	2	71.23	1.03	116.63	0.0007	4827	23	18.02	453.3		1.151	2	71.2	10.283	0.0007	1140.022	1.5575	21.917	14.0718	1775.591	0.6917	0.7051
1.161	2	72.23	0.94	116.2	0.0007	4843	23	18.02	450.4		1.161	2	72.2	10.274	0.0007	1144.48	1.5545	21.9723	14.1349	1779.067	0.6935	0.7099
1.171	2	73.23	1.01	116.01	0.0006	4840	23	18.02	449		1.171	2	73.2	10.281	0.0006	1147.689	1.5542	21.9292	14.1093	1783.784	0.6936	0.7123
1.181	2	74.23	0.9	116.3	0.0004	4724	23	18.01	447		1.181	2	74.2	10.27	0.0004	1142.762	1.5882	21.997	13.85	1814.966	0.6739	0.7157
1.191	2	75.23	0.85	116.26	0.0003	4640	23	18.02	449.7		1.191	2	75.2	10.265	0.0003	1142.714	1.6131	22.0279	13.656	1843.261	0.6595	0.7111
1.201	2	76.23	0.79	114.97	0.0009	4555	23	18.01	455.4		1.201	2	76.2	10.259	0.0009	1158.685	1.6389	22.0651	13.4632	1898.998	0.6445	0.7016
1.211	2	77.23	0.7	109.85	0.0007	4396	23	18.02	456.9		1.211	2	77.2	10.25	0.0007	1228.722	1.6887	22.121	13.0997	2074.902	0.6156	0.6991
1.221	2	78.23	0.66	114.41	0.0003	4239	23	18.02	457.8		1.221	2	78.2	10.246	0.0003	1164.583	1.7393	22.1459	12.7328	2025.544	0.5863	0.6976
1.231	2	79.23	0.61	116.14	0.0004	4754	23	18.02	456		1.231	2	79.2	10.241	0.0004	1141.567	1.5842	22.1771	13.9985	1808.523	0.6762	0.7006
1.241	2	80.23	0.67	116.1	0.001	4929	23	18.03	454.8		1.241	2	80.2	10.247	0.001	1142.746	1.5352	22.1397	14.4214	1754.343	0.7046	0.7025
1.251	2	81.23	0.68	116.58	0.0011	4884	23	18.04	457.7		1.251	2	81.2	10.248	0.0011	1136.772	1.5472	22.1335	14.3054	1758.829	0.6977	0.6978
1.261	2	82.23	0.62	116.43	0.0006	4736	22	18.03	461.7		1.261	2	82.2	10.242	0.0006	1138	1.5892	21.2069	13.3447	1808.476	0.6733	0.6913
1.271	2	83.23	0.52	99.77	0.0009	4738	22	18.03	466.8		1.271	2	83.2	10.232	0.0009	1395.146	1.5902	21.2668	13.374	2218.501	0.6728	0.6832
1.281	2	84.23	0.52	101.33	0.0004	4841	22	18.04	467.2		1.281	2	84.2	10.232	0.0004	1366.088	1.5614	21.2668	13.6203	2133.02	0.6894	0.6825
1.291	2	85.23	0.53	115.87	0.0004	4821	22	18.04	470.8		1.291	2	85.2	10.233	0.0004	1144.119	1.5668	21.2608	13.5698	1792.577	0.6863	0.6769
1.301	2	86.23	0.47	116.25	0.0007	4800	23	18.05	473.3		1.301	2	86.2	10.227	0.0007	1138.611	1.5735	22.2648	14.1496	1791.634	0.6824	0.673
1.311	2	87.23	0.51	115.9	0.0007	4830	22	18.06	474.9		1.311	2	87.2	10.231	0.0007	1143.512	1.5646	21.2727	13.5963	1789.131	0.6876	0.6705
1.321	2	88.23	0.53	116.05	0.0005	4872	22	18.05	474.5		1.321	2	88.2	10.233	0.0005	1141.821	1.5528	21.2608	13.6923	1772.967	0.6945	0.6711
1.331	2	89.23	0.54	115.99	0.0004	4888	23	18.05	476.6		1.331	2	89.2	10.234	0.0004	1142.698	1.5482	22.2209	14.3523	1769.172	0.6971	0.6679
1.341	2	90.23	0.53	115.64	0.0004	4837	23	18.06	474.5		1.341	2	90.2	10.233	0.0004	1147.069	1.5624	22.2272	14.2267	1792.13	0.6889	0.6711
1.351	2	91.23	0.49	116.17	0.0003	4770	23	18.06	474.5		1.351	2	91.2	10.229	0.0003	1139.849	1.5816	22.2522	14.0694	1802.79	0.6777	0.6711
1.361	2	92.23	0.54	103.26	0.0003	4738	23	18.07	476.4		1.361	2	92.2	10.234	0.0003	1332.032	1.5898	22.2209	13.9768	2117.726	0.6729	0.6683
1.371	2	93.23	0.48	115.63	0.0002	4645	23	18.07	476.5		1.371	2	93.2	10.228	0.0002	1146.637	1.6174	22.2585	13.7616	1854.614	0.6569	0.6681
1.381	2	94.23	0.48	115.18	0.0004	4691	23	18.07	476		1.381	2	94.2	10.228	0.0004	1152.451	1.6042	22.2585	13.8754	1848.725	0.6646	0.6689
1.391	2	95.23	0.54	115.81	0.0003	4752	24	18.08	477.5		1.391	2	95.2	10.234	0.0003	1144.999	1.5859	23.187	14.6208	1815.846	0.6752	0.6666
1.401	2	96.23	0.48	119.57	0.0001	4768	23	18.07	478.6		1.401	2	96.2	10.228	0.0001	1098.132	1.5823	22.2585	14.067	1737.597	0.6773	0.665
1.411	2	97.23	0.53	116.3	0.0002	4791	25	18.07	477		1.411	2	97.2	10.233	0.0002	1138.645	1.5751	24.16	15.3386	1793.492	0.6815	0.6675
1.421	2	98.23	0.53	116.3	0.0002	4691	25	18.08	476.1		1.421	2	98.2	10.233	0.0002	1138.645	1.6034	24.16	15.0681	1825.685	0.6651	0.6687
1.431	2	99.23	0.53	115.8	0.0002	4720	26	18.09	471.2		1.431	2	99.2	10.233	0.0002	1145.015	1.5951	25.1263	15.7521	1826.421	0.6699	0.6763
1.441	2	100.23	0.54	99.91	0.0003	4697	27	18.09	464.9		1.441	2	100.2	10.234	0.0003	1392.76	1.6015	26.0854	16.288	2230.519	0.6662	0.6861
