Geotek MSCL 7.9 - TN336_JPC42-51.raw created at 22:57:26 on 1/26/2016.											Geotek MSCL 7.9 - TN336_JPC42-51.out created at 22:58:31 on 1/26/2016.											
																						
																						
Core Depth	Section	Sect Depth	CTD 	Tr. Time 	PW Amp   	A Gamma  	Mag Sus  	Temp     	NC Res   		SB DEPTH	SECT NUM	SECT DEPTH	CT	PWAmp	PWVel	Den1	MS1	MS1	Imp	FP	RES
m		cm	mm	µsec		cps	SI x 10^-5	°C	mV		m		cm	cm		m/s	g/cc	SI x 10^-5	x 10^-8 (m^3/kg)			Ohm.m
																						
0.002	1	0.2	5.94	999	0	7362	11	20.69	294.3		0.002	1	0.2	10.774	0	110.8653	1.0243	9.1681	8.9505	113.5601	1.001	1.0701
0.012	1	1.2	5.82	999	0	5369	14	20.68	362.6		0.012	1	1.2	10.762	0	110.7418	1.371	11.7057	8.5382	151.8253	0.7999	0.8498
0.022	1	2.2	6.09	999	0	5293	16	20.69	469.9		0.022	1	2.2	10.789	0	111.0196	1.3839	13.2824	9.5981	153.6354	0.7924	0.6384
0.032	1	3.2	5.84	96.55	0.0005	5299	18	20.68	570.2		0.032	1	3.2	10.764	0.0005	1551.903	1.3858	15.0422	10.8548	2150.582	0.7913	0.5157
0.042	1	4.2	5.29	999	0	5380	19	20.69	646		0.042	1	4.2	10.709	0.0003	1440.5895	1.3754	16.1124	11.7145	151.566	0.7973	0.4494
0.052	1	5.2	0.86	104.42	0.0001	5325	21	20.68	698.5		0.052	1	5.2	10.266	0.0001	1329.276	1.4471	20.1068	13.8945	1923.602	0.7557	0.4122
0.062	1	6.2	0.17	93.31	0.0013	5297	21	20.69	726.6		0.062	1	6.2	10.197	0.0013	1542.196	1.4633	20.5018	14.0108	2256.67	0.7464	0.3947
0.072	1	7.2	-0.53	93.29	0.0017	5274	22	20.68	742.9		0.072	1	7.2	10.127	0.0017	1532.073	1.4787	21.9095	14.8166	2265.497	0.7374	0.3851
0.082	1	8.2	-0.5	93.89	0.0069	5284	22	20.69	751.1		0.082	1	8.2	10.13	0.0069	1518.741	1.476	21.8907	14.8315	2241.603	0.739	0.3805
0.092	1	9.2	-0.52	93.8	0.0078	5270	22	20.69	756.1		0.092	1	9.2	10.128	0.0078	1520.492	1.4795	21.9032	14.8045	2249.562	0.737	0.3777
0.102	1	10.2	-0.46	93.79	0.0142	5222	22	20.68	761.4		0.102	1	10.2	10.134	0.0142	1521.622	1.4898	21.8658	14.6769	2266.935	0.731	0.3748
0.112	1	11.2	-0.45	94.1	0.0103	5234	23	20.68	764.8		0.112	1	11.2	10.135	0.0103	1514.721	1.4869	22.8532	15.3701	2252.174	0.7327	0.373
0.122	1	12.2	-0.38	93.96	0.0051	5259	22	20.68	765.1		0.122	1	12.2	10.142	0.0051	1518.946	1.48	21.816	14.7405	2248.047	0.7367	0.3728
0.132	1	13.2	-0.31	94	0.0108	5249	23	20.68	761.9		0.132	1	13.2	10.149	0.0108	1519.084	1.4813	22.7622	15.3663	2250.232	0.7359	0.3746
0.142	1	14.2	-0.26	94.32	0.0058	5299	23	20.68	758.2		0.142	1	14.2	10.154	0.0058	1512.588	1.469	22.7299	15.4728	2222.022	0.743	0.3766
0.152	1	15.2	-0.2	94.39	0.0086	5227	23	20.68	749.8		0.152	1	15.2	10.16	0.0086	1511.905	1.4848	22.6912	15.282	2244.926	0.7339	0.3812
0.162	1	16.2	-0.1	94.83	0.0103	5274	23	20.68	742.2		0.162	1	16.2	10.17	0.0103	1503.548	1.4725	22.6268	15.3666	2213.917	0.741	0.3855
0.172	1	17.2	-0.05	94.91	0.0063	5258	22	20.68	738.9		0.172	1	17.2	10.175	0.0063	1502.51	1.4754	21.6123	14.6481	2216.859	0.7393	0.3875
0.182	1	18.2	0.02	95.19	0.0097	5138	23	20.69	735.6		0.182	1	18.2	10.182	0.0097	1497.353	1.5026	22.5499	15.0071	2249.947	0.7235	0.3893
0.192	1	19.2	-0.01	95.21	0.0087	5166	22	20.69	736.4		0.192	1	19.2	10.179	0.0087	1496.472	1.4964	21.5878	14.4265	2239.323	0.7271	0.3889
0.202	1	20.2	0.1	94.93	0.0066	5177	23	20.69	738.6		0.202	1	20.2	10.19	0.0066	1504.281	1.4922	22.4989	15.0778	2244.669	0.7296	0.3876
0.212	1	21.2	0.1	94.94	0.0053	5140	23	20.68	739.9		0.212	1	21.2	10.19	0.0053	1504.059	1.501	22.4989	14.9896	2257.532	0.7245	0.3868
0.222	1	22.2	0.15	95.18	0.0087	5274	23	20.68	742.8		0.222	1	22.2	10.195	0.0087	1499.485	1.4689	22.467	15.2956	2202.521	0.7431	0.3852
0.232	1	23.2	0.2	95.14	0.0067	5217	23	20.68	742.6		0.232	1	23.2	10.2	0.0067	1501.104	1.4813	22.4353	15.1452	2223.647	0.7359	0.3853
0.242	1	24.2	0.25	94.95	0.0052	5144	23	20.68	744.1		0.242	1	24.2	10.205	0.0052	1506.051	1.4978	22.4035	14.9576	2255.767	0.7263	0.3845
0.252	1	25.2	0.3	95.24	0.0063	5089	24	20.68	747.1		0.252	1	25.2	10.21	0.0063	1500.367	1.5102	23.3446	15.4577	2265.892	0.7191	0.3828
0.262	1	26.2	0.35	95.61	0.0049	5108	24	20.69	744.3		0.262	1	26.2	10.215	0.0049	1492.984	1.5049	23.3116	15.4903	2246.825	0.7222	0.3843
0.272	1	27.2	0.39	95.28	0.0062	5161	24	20.67	740		0.272	1	27.2	10.219	0.0062	1500.808	1.4917	23.2853	15.6097	2238.793	0.7299	0.3868
0.282	1	28.2	0.4	95.42	0.0072	5125	24	20.68	730.1		0.282	1	28.2	10.22	0.0072	1497.875	1.5001	23.2788	15.5179	2246.998	0.725	0.3926
0.292	1	29.2	0.44	95.64	0.003	5083	25	20.68	717.2		0.292	1	29.2	10.224	0.003	1493.645	1.5096	24.2213	16.0449	2254.808	0.7195	0.4004
0.302	1	30.2	0.45	95.09	0.0018	5117	25	20.69	704.8		0.302	1	30.2	10.225	0.0018	1505.891	1.5013	24.2145	16.1291	2260.792	0.7243	0.4082
0.312	1	31.2	0.45	95.74	0.0012	5037	25	20.69	690.9		0.312	1	31.2	10.225	0.0012	1491.612	1.5206	24.2145	15.9243	2268.146	0.7131	0.4173
0.322	1	32.2	0.45	95.16	0.0017	5028	27	20.68	690.6		0.322	1	32.2	10.225	0.0017	1504.34	1.5228	26.1517	17.1734	2290.804	0.7118	0.4175
0.332	1	33.2	0.41	95.51	0.0056	4991	27	20.68	688.4		0.332	1	33.2	10.221	0.0056	1496.048	1.5325	26.1812	17.0842	2292.666	0.7062	0.4189
0.342	1	34.2	0.35	95.63	0.0054	4981	26	20.68	680.5		0.342	1	34.2	10.215	0.0054	1492.548	1.5359	25.2543	16.4431	2292.337	0.7043	0.4243
0.352	1	35.2	0.33	95.62	0.0067	5120	27	20.68	666.3		0.352	1	35.2	10.213	0.0067	1492.474	1.5023	26.2404	17.4663	2242.211	0.7237	0.4343
0.362	1	36.2	0.38	95.48	0.0051	5135	27	20.68	651.2		0.362	1	36.2	10.218	0.0051	1496.266	1.498	26.2034	17.4918	2241.459	0.7262	0.4454
0.372	1	37.2	0.35	95.39	0.0034	5104	27	20.69	633.6		0.372	1	37.2	10.215	0.0034	1497.801	1.5059	26.2256	17.4155	2255.509	0.7216	0.4591
0.382	1	38.2	0.35	95.57	0.0035	5035	28	20.69	620.6		0.382	1	38.2	10.215	0.0035	1493.858	1.5226	27.1969	17.8624	2274.514	0.712	0.4697
0.392	1	39.2	0.31	95.31	0.005	5115	28	20.69	610.4		0.392	1	39.2	10.211	0.005	1498.972	1.5038	27.2277	18.1055	2254.208	0.7228	0.4784
0.402	1	40.2	0.31	95.39	0.0068	5015	29	20.68	604.4		0.402	1	40.2	10.211	0.0068	1497.214	1.5281	28.2001	18.4547	2287.85	0.7088	0.4836
0.412	1	41.2	0.26	95.22	0.0052	4996	30	20.69	603.9		0.412	1	41.2	10.206	0.0052	1500.22	1.5335	29.2138	19.0504	2300.586	0.7056	0.4841
0.422	1	42.2	0.25	95.1	0.0049	4988	30	20.68	608.8		0.422	1	42.2	10.205	0.0049	1502.724	1.5356	29.222	19.0294	2307.623	0.7044	0.4797
0.432	1	43.2	0.21	95.38	0.0066	4961	31	20.68	614.9		0.432	1	43.2	10.201	0.0066	1495.967	1.5429	30.2303	19.5927	2308.18	0.7002	0.4745
0.442	1	44.2	0.2	95.63	0.0067	4956	32	20.68	618.2		0.442	1	44.2	10.2	0.0067	1490.357	1.5443	31.2143	20.2121	2301.608	0.6993	0.4717
0.452	1	45.2	0.2	95.69	0.0052	4995	32	20.68	620.2		0.452	1	45.2	10.2	0.0052	1489.051	1.5346	31.2143	20.3397	2285.169	0.705	0.47
0.462	1	46.2	0.15	95.76	0.0059	4933	32	20.68	621.6		0.462	1	46.2	10.195	0.0059	1486.802	1.5509	31.2585	20.1557	2305.811	0.6956	0.4689
0.472	1	47.2	0.15	95.74	0.0059	4926	32	20.68	622.2		0.472	1	47.2	10.195	0.0059	1487.236	1.5526	31.2585	20.1328	2309.102	0.6945	0.4683
0.482	1	48.2	0.15	95.61	0.0054	4869	33	20.68	624.3		0.482	1	48.2	10.195	0.0054	1490.061	1.5671	32.2353	20.5704	2335.037	0.6862	0.4666
0.492	1	49.2	0.31	95.67	0.0055	4915	33	20.68	623.5		0.492	1	49.2	10.211	0.0055	1491.092	1.553	32.0898	20.6637	2315.592	0.6943	0.4673
0.502	1	50.2	0.36	95.73	0.0043	4929	32	20.68	621.6		0.502	1	50.2	10.216	0.0043	1490.516	1.5487	31.0734	20.0646	2308.316	0.6968	0.4688
0.512	1	51.2	0.39	95.79	0.0048	4974	32	20.67	615.2		0.512	1	51.2	10.219	0.0048	1489.65	1.537	31.0471	20.2	2289.574	0.7036	0.4743
0.522	1	52.2	0.36	95.82	0.0046	4970	33	20.68	608.6		0.522	1	52.2	10.216	0.0046	1488.562	1.5384	32.0445	20.8293	2290.051	0.7028	0.4799
0.532	1	53.2	0.51	95.76	0.0042	5053	33	20.68	601.9		0.532	1	53.2	10.231	0.0042	1492.052	1.5158	31.9091	21.0507	2261.68	0.7159	0.4859
0.542	1	54.2	0.53	95.53	0.0028	5332	33	20.68	597.2		0.542	1	54.2	10.233	0.0028	1497.366	1.4502	31.8911	21.991	2171.461	0.754	0.49
0.552	1	55.2	0.63	95.58	0.001	5251	35	20.69	596.9		0.552	1	55.2	10.243	0.001	1497.734	1.4673	33.7288	22.9877	2197.555	0.7441	0.4903
0.562	1	56.2	0.67	95.62	0.002	4911	36	20.68	604.4		0.562	1	56.2	10.247	0.002	1497.443	1.5485	34.6534	22.3787	2318.789	0.6969	0.4836
0.572	1	57.2	0.67	95.91	0.0039	4960	37	20.68	603.8		0.572	1	57.2	10.247	0.0039	1491.123	1.5363	35.616	23.1836	2290.748	0.704	0.4842
0.582	1	58.2	0.72	95.81	0.0028	4873	39	20.68	601.8		0.582	1	58.2	10.252	0.0028	1494.025	1.5573	37.4884	24.072	2326.713	0.6918	0.4859
0.592	1	59.2	0.72	95.64	0.0023	4903	40	20.68	598.1		0.592	1	59.2	10.252	0.0023	1497.736	1.5498	38.4497	24.8101	2321.127	0.6962	0.4892
0.602	1	60.2	0.66	95.71	0.003	4901	41	20.68	593.8		0.602	1	60.2	10.246	0.003	1495.33	1.5512	39.4775	25.4502	2319.51	0.6954	0.4932
0.612	1	61.2	0.67	95.8	0.0017	4866	43	20.69	589.7		0.612	1	61.2	10.247	0.0017	1493.514	1.5599	41.3916	26.535	2329.711	0.6903	0.497
0.622	1	62.2	0.67	95.62	0.0029	4874	45	20.68	587.4		0.622	1	62.2	10.247	0.0029	1497.443	1.5579	43.3168	27.8055	2332.792	0.6915	0.4991
0.632	1	63.2	0.62	95.49	0.0034	4833	46	20.68	586.4		0.632	1	63.2	10.242	0.0034	1499.561	1.5691	44.3417	28.2595	2352.945	0.685	0.5
0.642	1	64.2	0.57	95.61	0.0024	4733	47	20.68	585		0.642	1	64.2	10.237	0.0024	1496.2	1.5959	45.3695	28.4284	2387.821	0.6694	0.5014
0.652	1	65.2	0.52	95.69	0.0024	4740	48	20.68	582.9		0.652	1	65.2	10.232	0.0024	1493.723	1.5949	46.4002	29.0937	2382.27	0.67	0.5033
0.662	1	66.2	0.47	95.39	0.0039	4861	49	20.69	581		0.662	1	66.2	10.227	0.0039	1499.56	1.5642	47.4337	30.3243	2345.63	0.6878	0.5051
0.672	1	67.2	0.46	95.56	0.0038	4790	50	20.68	580.5		0.672	1	67.2	10.226	0.0038	1495.685	1.5827	48.4154	30.5908	2367.188	0.6771	0.5056
0.682	1	68.2	0.45	95.4	0.0031	4731	52	20.68	577.9		0.682	1	68.2	10.225	0.0031	1499.047	1.5983	50.3662	31.5118	2395.966	0.668	0.5081
0.692	1	69.2	0.42	95.65	0.0042	4889	53	20.69	573.2		0.692	1	69.2	10.222	0.0042	1493.135	1.5578	51.3782	32.9802	2326.079	0.6915	0.5127
0.702	1	70.2	0.39	95.73	0.0039	4690	55	20.68	567.5		0.702	1	70.2	10.219	0.0039	1490.954	1.6102	53.3622	33.1403	2400.719	0.6611	0.5184
0.712	1	71.2	0.34	95.68	0.0033	4798	57	20.68	565.2		0.712	1	71.2	10.214	0.0033	1491.313	1.5825	55.3808	34.9968	2359.933	0.6772	0.5207
0.722	1	72.2	0.29	95.67	0.0044	4794	58	20.68	564.3		0.722	1	72.2	10.209	0.0044	1490.8	1.5843	56.4321	35.6202	2361.83	0.6762	0.5217
0.732	1	73.2	0.28	95.72	0.0039	4673	60	20.68	567.1		0.732	1	73.2	10.208	0.0039	1489.567	1.6165	58.3945	36.1241	2407.88	0.6575	0.5189
0.742	1	74.2	0.04	95.31	0.0032	4722	63	20.68	569.7		0.742	1	74.2	10.184	0.0032	1495.009	1.6072	61.7321	38.4108	2402.713	0.6629	0.5162
0.752	1	75.2	0	95.4	0.004	4730	66	20.68	570.9		0.752	1	75.2	10.18	0.004	1492.45	1.6057	64.7451	40.3231	2396.363	0.6638	0.515
0.762	1	76.2	-0.01	95.42	0.0036	4718	70	20.68	572.6		0.762	1	76.2	10.179	0.0036	1491.866	1.609	68.6886	42.6899	2400.432	0.6618	0.5133
0.772	1	77.2	-0.01	94.89	0.0019	4600	72	20.69	573.9		0.772	1	77.2	10.179	0.0019	1503.545	1.641	70.6511	43.0525	2467.385	0.6432	0.512
0.782	1	78.2	-0.02	94.84	0.003	4591	76	20.68	571.2		0.782	1	78.2	10.178	0.003	1504.509	1.6437	74.5973	45.3839	2472.953	0.6417	0.5147
0.792	1	79.2	-0.07	94.96	0.0019	4523	78	20.69	566.8		0.792	1	79.2	10.173	0.0019	1501.107	1.6635	76.6691	46.0884	2497.126	0.6302	0.5191
0.802	1	80.2	-0.02	95.05	0.0011	4509	82	20.69	561.4		0.802	1	80.2	10.178	0.0011	1499.853	1.6667	80.4866	48.2919	2499.756	0.6284	0.5247
0.812	1	81.2	-0.03	94.76	0.0016	4529	85	20.69	552.4		0.812	1	81.2	10.177	0.0016	1506.142	1.6612	83.4548	50.2384	2501.968	0.6316	0.5341
0.822	1	82.2	-0.05	94.85	0.0017	4531	88	20.69	544.4		0.822	1	82.2	10.175	0.0017	1503.843	1.6609	86.4493	52.0485	2497.792	0.6317	0.5427
0.832	1	83.2	-0.05	94.73	0.002	4478	90	20.68	537.9		0.832	1	83.2	10.175	0.002	1506.515	1.676	88.4141	52.7533	2524.907	0.623	0.5499
0.842	1	84.2	0	94.94	0.0021	4449	93	20.69	536.5		0.842	1	84.2	10.18	0.0021	1502.583	1.6835	91.2318	54.1916	2529.603	0.6186	0.5516
0.852	1	85.2	0.05	94.95	0.0024	4357	93	20.68	534.6		0.852	1	85.2	10.185	0.0024	1503.099	1.7096	91.1026	53.2892	2569.682	0.6035	0.5537
0.862	1	86.2	0.1	95.08	0.0026	4409	94	20.68	532.9		0.862	1	86.2	10.19	0.0026	1500.957	1.6935	91.9518	54.2984	2541.802	0.6128	0.5557
0.872	1	87.2	0.07	95.31	0.0022	4466	94	20.68	528.6		0.872	1	87.2	10.187	0.0022	1495.449	1.6775	92.03	54.8628	2508.549	0.6221	0.5607
0.882	1	88.2	0.16	95.2	0.0017	4494	94	20.69	527.2		0.882	1	88.2	10.196	0.0017	1499.191	1.668	91.7957	55.034	2500.622	0.6276	0.5623
0.892	1	89.2	0.3	95.17	0.0022	4535	93	20.68	526.9		0.892	1	89.2	10.21	0.0022	1501.912	1.6541	90.4603	54.6878	2484.348	0.6357	0.5627
0.902	1	90.2	0.36	95.25	0.0017	4530	94	20.69	525.1		0.902	1	90.2	10.216	0.0017	1501.028	1.6546	91.2781	55.1678	2483.533	0.6354	0.5648
0.912	1	91.2	0.47	95.43	0.0018	4520	94	20.69	520.5		0.912	1	91.2	10.227	0.0018	1498.681	1.6556	90.9952	54.9626	2481.191	0.6348	0.5703
0.922	1	92.2	0.57	95.54	0.0014	4399	96	20.69	514.8		0.922	1	92.2	10.237	0.0014	1497.732	1.6886	92.6697	54.88	2529.053	0.6157	0.5772
0.932	1	93.2	0.66	95.02	0.0013	4333	95	20.69	488.4		0.932	1	93.2	10.246	0.0013	1510.541	1.7065	91.4722	53.6018	2577.761	0.6053	0.6118
0.942	1	94.2	0.72	95.01	0.0021	4529	93	20.69	482.1		0.942	1	94.2	10.252	0.0021	1511.648	1.649	89.3955	54.2111	2492.745	0.6386	0.6207
0.952	1	95.2	0.88	95.5	0.0015	4604	92	20.69	485.3		0.952	1	95.2	10.268	0.0015	1503.147	1.6257	88.0375	54.1527	2443.708	0.6521	0.6161
0.962	1	96.2	0.92	95.86	0.001	4722	90	20.69	487.4		0.962	1	96.2	10.272	0.001	1495.85	1.5934	86.027	53.99	2383.469	0.6709	0.6132
0.972	1	97.2	1.05	95.59	0.001	4511	90	20.7	488.9		0.972	1	97.2	10.285	0.001	1503.655	1.6488	85.7139	51.9867	2479.178	0.6388	0.6112
0.982	1	98.2	1.12	95.5	0.0006	4382	92	20.69	488		0.982	1	98.2	10.292	0.0006	1506.661	1.6845	87.4471	51.9126	2537.977	0.618	0.6124
0.992	1	99.2	1.22	95.32	0.001	4383	93	20.69	487.2		0.992	1	99.2	10.302	0.001	1512.109	1.6826	88.1505	52.3902	2544.242	0.6192	0.6135
1.002	1	100.2	1.27	95.7	0.0014	4457	93	20.69	483.7		1.002	1	100.2	10.307	0.0014	1504.452	1.6605	88.0274	53.0132	2498.115	0.632	0.6184
1.012	1	101.2	1.46	95.84	0.0019	4408	94	20.68	484.2		1.012	1	101.2	10.326	0.0019	1504.152	1.6714	88.5031	52.9503	2514.096	0.6256	0.6177
1.022	1	102.2	1.63	95.77	0.0014	4450	94	20.69	485.9		1.022	1	102.2	10.343	0.0014	1508.166	1.6567	88.0848	53.1692	2498.56	0.6342	0.6153
1.032	1	103.2	1.73	95.44	0.0009	4385	94	20.69	489.9		1.032	1	103.2	10.353	0.0009	1516.923	1.6737	87.84	52.4822	2538.89	0.6243	0.6098
1.042	1	104.2	3.12	95.88	0.0023	4330	94	20.68	493.6		1.042	1	104.2	10.492	0.0023	1527.442	1.6674	84.5343	50.699	2546.818	0.628	0.6047
1.052	1	105.2	3.44	95.7	0.0018	4335	95	20.69	495.5		1.052	1	105.2	10.524	0.0018	1536.126	1.6609	84.6895	50.9914	2551.287	0.6318	0.6021
1.062	1	106.2	3.29	999	0	4250	95	20.69	492.8		1.062	1	106.2	10.509	0.00095	1530.2165	1.6882	85.0372	50.3726	182.5554	0.6159	0.6058
1.072	1	107.2	3.24	96.1	0.0001	4216	95	20.7	482.6		1.072	1	107.2	10.504	0.0001	1524.307	1.6991	85.1535	50.1158	2590.005	0.6095	0.62
1.082	1	108.2	3.02	97.55	0.0002	4264	96	20.69	463.4		1.082	1	108.2	10.482	0.0002	1489.767	1.6883	86.5698	51.2748	2515.246	0.6158	0.6484
1.092	1	109.2	2.69	97.13	0.0001	4249	95	20.69	429		1.092	1	109.2	10.449	0.0001	1493.995	1.6982	86.448	50.9069	2537.038	0.6101	0.706
1.102	1	110.2	2.63	95.88	0.0011	4289	94	20.69	368.3		1.102	1	110.2	10.443	0.0011	1520.309	1.6872	85.6794	50.7809	2565.121	0.6165	0.8354
1.112	1	111.2	2.22	95.73	0.0033	4384	94	20.69	287.3		1.112	1	111.2	10.402	0.0033	1517.654	1.6661	86.6543	52.0098	2528.585	0.6287	1.099
1.122	1	112.2	4.75	96.27	0.0031	4367	94	20.68	221.7		1.122	1	112.2	10.655	0.0031	1542.415	1.6313	80.8764	49.5765	2516.213	0.6489	1.4626
1.132	1	113.2	6.35	999	0	6722	93	20.69	203.5		1.132	1	113.2	10.815	0	111.2872	1.1165	76.6748	68.6754	124.25	0.9475	1.6076
1.142	2	0.68	6.2	999	0	4335	92	20.69	233.2		1.142	2	0.7	10.8	0	111.1328	1.6184	76.1518	47.0534	179.8589	0.6564	1.383
1.152	2	1.68	6.26	101.71	0.0001	4277	91	20.68	297.6		1.152	2	1.7	10.806	0.0001	1450.081	1.634	75.2046	46.0251	2369.42	0.6473	1.0568
1.162	2	2.68	5.67	103.58	0.0001	4291	90	20.69	367.6		1.162	2	2.7	10.747	0.0001	1406.859	1.6389	75.5519	46.0981	2305.753	0.6445	0.8371
1.172	2	3.68	5.06	999	0	4468	89	20.69	423.2		1.172	2	3.7	10.686	0.0001	1411.0405	1.5986	75.9398	47.5046	175.7791	0.6679	0.7167
1.182	2	4.68	2.7	101.03	0.0001	4620	90	20.69	463.7		1.182	2	4.7	10.45	0.0001	1415.222	1.5931	81.8755	51.393	2254.626	0.671	0.6478
1.192	2	5.68	0.28	95.02	0.0004	4609	92	20.69	488.8		1.192	2	5.7	10.208	0.0004	1504.939	1.6339	89.5382	54.8	2458.933	0.6474	0.6113
1.202	2	6.68	-0.47	93.85	0.0009	4542	95	20.69	502.7		1.202	2	6.7	10.133	0.0009	1520.102	1.6647	94.4473	56.7348	2530.539	0.6295	0.5926
1.212	2	7.68	-0.55	94.44	0.0023	4462	98	20.69	510.2		1.212	2	7.7	10.125	0.0023	1505.576	1.6889	97.6524	57.8207	2542.741	0.6155	0.583
1.222	2	8.68	-0.55	94.18	0.0023	4415	102	20.7	513.1		1.222	2	8.7	10.125	0.0023	1511.42	1.7026	101.6382	59.6971	2573.29	0.6076	0.5794
1.232	2	9.68	-0.55	94.02	0.0023	4190	103	20.7	515		1.232	2	9.7	10.125	0.0023	1515.038	1.7709	102.6347	57.9568	2682.955	0.5679	0.577
1.242	2	10.68	-0.55	93.08	0.0015	4097	101	20.69	515.4		1.242	2	10.7	10.125	0.0015	1536.652	1.8006	100.6418	55.894	2766.872	0.5507	0.5765
1.252	2	11.68	-0.55	93.01	0.0017	4340	97	20.69	515.7		1.252	2	11.7	10.125	0.0017	1538.286	1.7248	96.656	56.0387	2653.247	0.5947	0.5762
1.262	2	12.68	-0.55	93.67	0.0063	4263	90	20.68	515.4		1.262	2	12.7	10.125	0.0063	1523.015	1.7482	89.6808	51.2993	2662.513	0.5811	0.5766
1.272	2	13.68	-0.55	94.13	0.0031	4571	82	20.68	515.9		1.272	2	13.7	10.125	0.0031	1512.549	1.6579	81.7092	49.2853	2507.625	0.6335	0.576
1.282	2	14.68	-0.52	94.55	0.0036	4632	75	20.69	520		1.282	2	14.7	10.128	0.0036	1503.563	1.6405	74.6701	45.5175	2466.551	0.6436	0.5709
1.292	2	15.68	-0.54	94.88	0.0031	4703	71	20.68	522		1.292	2	15.7	10.126	0.0031	1495.937	1.6215	70.728	43.6197	2425.615	0.6546	0.5685
1.302	2	16.68	-0.5	95.11	0.0045	4774	69	20.68	523.8		1.302	2	16.7	10.13	0.0045	1491.461	1.6019	68.6573	42.8601	2389.159	0.666	0.5663
1.312	2	17.68	-0.45	94.97	0.0046	4796	70	20.69	525.3		1.312	2	17.7	10.135	0.0046	1495.279	1.5953	69.5531	43.5984	2385.437	0.6698	0.5646
1.322	2	18.68	-0.4	95.03	0.0051	4531	73	20.68	524.2		1.322	2	18.7	10.14	0.0051	1494.693	1.6667	72.4307	43.4583	2491.165	0.6284	0.5658
1.332	2	19.68	-0.35	94.94	0.0035	4570	76	20.69	526.7		1.332	2	19.7	10.145	0.0035	1497.417	1.6549	75.3001	45.5015	2478.062	0.6352	0.5629
1.342	2	20.68	-0.25	94.47	0.0026	4587	78	20.68	528.4		1.342	2	20.7	10.155	0.0026	1509.364	1.6485	77.0621	46.746	2488.229	0.6389	0.5609
1.352	2	21.68	-0.25	94.22	0.0043	4512	79	20.68	525.3		1.352	2	21.7	10.155	0.0043	1514.993	1.6696	78.05	46.748	2529.418	0.6267	0.5645
1.362	2	22.68	-0.2	94.6	0.0032	4472	80	20.69	519.3		1.362	2	22.7	10.16	0.0032	1507.195	1.6802	78.9258	46.9744	2532.371	0.6205	0.5717
1.372	2	23.68	-0.15	94.78	0.004	4292	81	20.68	514.8		1.372	2	23.7	10.165	0.004	1503.921	1.7325	79.7989	46.0608	2605.498	0.5902	0.5773
1.382	2	24.68	-0.09	94.55	0.0067	4400	82	20.68	509.9		1.382	2	24.7	10.171	0.0067	1509.946	1.6993	80.6466	47.46	2565.78	0.6095	0.5834
1.392	2	25.68	-0.04	94.85	0.0087	4444	83	20.68	508.7		1.392	2	25.7	10.176	0.0087	1503.99	1.6856	81.5143	48.359	2535.14	0.6174	0.5849
1.402	2	26.68	-0.01	94.93	0.0079	4387	85	20.69	507.3		1.402	2	26.7	10.179	0.0079	1502.657	1.7017	83.4075	49.0133	2557.121	0.608	0.5867
1.412	2	27.68	-0.04	94.83	0.0071	4344	88	20.68	505.1		1.412	2	27.7	10.176	0.0071	1504.435	1.715	86.4248	50.3944	2580.06	0.6004	0.5895
1.422	2	28.68	-0.04	94.7	0.0064	4282	91	20.69	502.1		1.422	2	28.7	10.176	0.0064	1507.332	1.7336	89.3711	51.5514	2613.16	0.5895	0.5934
1.432	2	29.68	-0.04	94.45	0.0048	4213	94	20.68	499.5		1.432	2	29.7	10.176	0.0048	1512.935	1.7548	92.3174	52.6075	2654.952	0.5772	0.5969
1.442	2	30.68	-0.04	94.18	0.0052	4218	97	20.68	494.8		1.442	2	30.7	10.176	0.0052	1519.033	1.7533	95.2637	54.3345	2663.294	0.5781	0.6031
1.452	2	31.68	-0.04	94.16	0.0051	4204	99	20.67	490.1		1.452	2	31.7	10.176	0.0051	1519.486	1.7576	97.2279	55.3175	2670.703	0.5756	0.6095
