Geotek MSCL 7.9 - TN336_JPC41-50.raw created at 19:53:10 on 1/26/2016.											Geotek MSCL 7.9 - TN336_JPC41-50.out created at 19:54:00 on 1/26/2016.											
																						
																						
Core Depth	Section	Sect Depth	CTD 	Tr. Time 	PW Amp   	A Gamma  	Mag Sus  	Temp     	NC Res   		SB DEPTH	SECT NUM	SECT DEPTH	CT	PWAmp	PWVel	Den1	MS1	MS1	Imp	FP	RES
m		cm	mm	µsec		cps	SI x 10^-5	°C	mV		m		cm	cm		m/s	g/cc	x 10^-8 (m^3/kg)	x 10^-8 (m^3/kg)			Ohm.m
																						
0.002	1	0.2	5.11	101.88	0.0005	9797	14	19.51	276.9		0.002	1	0.2	10.691	0.0005	1431.383	0.7406	11.9296	16.107	1060.15	1.1655	1.1446
0.012	1	1.2	5.01	999	0	5267	17	19.52	340.6		0.012	1	1.2	10.681	0.0003	1449.2635	1.4036	14.5248	10.3486	154.2625	0.781	0.9106
0.022	1	2.2	4.7	99.78	0.0001	5143	20	19.52	445.5		0.022	1	2.2	10.65	0.0001	1467.144	1.4354	17.2309	12.0039	2106.007	0.7625	0.6772
0.032	1	3.2	4.44	95.79	0.0002	5074	21	19.51	547.8		0.032	1	3.2	10.624	0.0002	1548.688	1.4549	18.2197	12.5234	2253.113	0.7512	0.539
0.042	1	4.2	4.35	999	0	5146	22	19.52	626		0.042	1	4.2	10.615	0.00035	1542.8295	1.4395	19.1337	13.292	157.2347	0.7602	0.4652
0.052	1	5.2	1.3	94.27	0.0005	5158	24	19.53	679.5		0.052	1	5.2	10.31	0.0005	1536.971	1.4793	22.6977	15.3439	2273.582	0.7371	0.425
0.062	1	6.2	0.77	94.47	0.0024	5086	24	19.52	711.4		0.062	1	6.2	10.257	0.0024	1524.524	1.504	23.0374	15.3172	2292.921	0.7227	0.404
0.072	1	7.2	0.74	94.48	0.002	5165	24	19.52	726.7		0.072	1	7.2	10.254	0.002	1523.852	1.4857	23.0568	15.5193	2263.975	0.7334	0.3946
0.082	1	8.2	0.6	94.43	0.001	5212	24	19.53	734		0.082	1	8.2	10.24	0.001	1522.903	1.4767	23.1479	15.6752	2248.898	0.7386	0.3903
0.092	1	9.2	0.35	93.59	0.0018	5150	23	19.52	734.6		0.092	1	9.2	10.215	0.0018	1538.404	1.4949	22.3403	14.9442	2299.78	0.728	0.3899
0.102	1	10.2	0.01	94.12	0.004	5076	23	19.52	733.6		0.102	1	10.2	10.181	0.004	1521.141	1.5177	22.5563	14.8624	2308.593	0.7148	0.3905
0.112	1	11.2	0.01	93.93	0.0011	5070	23	19.53	728.1		0.112	1	11.2	10.181	0.0011	1525.472	1.5191	22.5563	14.8482	2317.386	0.714	0.3938
0.122	1	12.2	-0.04	94.08	0.0019	5181	22	19.53	719.8		0.122	1	12.2	10.176	0.0019	1521.304	1.4933	21.6062	14.4688	2271.756	0.7289	0.3988
0.132	1	13.2	-0.1	94.05	0.0012	5016	22	19.53	711.3		0.132	1	13.2	10.17	0.0012	1521.089	1.534	21.643	14.109	2333.327	0.7053	0.404
0.142	1	14.2	-0.05	94.84	0.005	5028	22	19.53	704.6		0.142	1	14.2	10.175	0.005	1504.065	1.5303	21.6123	14.1231	2301.641	0.7075	0.4083
0.152	1	15.2	-0.01	95.4	0.0036	5005	22	19.52	697		0.152	1	15.2	10.179	0.0036	1492.303	1.5353	21.5878	14.0606	2291.195	0.7046	0.4132
0.162	1	16.2	-0.06	95.83	0.0017	5086	23	19.53	690.6		0.162	1	16.2	10.174	0.0017	1482.226	1.5163	22.6011	14.9055	2247.49	0.7156	0.4175
0.172	1	17.2	0.05	96.14	0.001	5266	23	19.53	681.2		0.172	1	17.2	10.185	0.001	1477.157	1.4721	22.5307	15.3048	2174.581	0.7412	0.4238
0.182	1	18.2	0.09	96.18	0.0006	5136	23	19.54	675.3		0.182	1	18.2	10.189	0.0006	1476.881	1.5021	22.5052	14.9829	2218.365	0.7239	0.4279
0.192	1	19.2	0.13	96.22	0.0005	5189	23	19.53	675.2		0.192	1	19.2	10.193	0.0005	1476.604	1.4889	22.4797	15.098	2198.548	0.7315	0.4279
0.202	1	20.2	0.21	96.1	0.0004	5067	23	19.54	671		0.202	1	20.2	10.201	0.0004	1480.337	1.5169	22.4289	14.7863	2245.487	0.7153	0.4309
0.212	1	21.2	0.32	96.08	0.0006	5042	24	19.53	669.6		0.212	1	21.2	10.212	0.0006	1482.363	1.5213	23.3314	15.3363	2255.144	0.7127	0.4319
0.222	1	22.2	0.35	95.89	0.001	5292	24	19.53	666.3		0.222	1	22.2	10.215	0.001	1486.9	1.4618	23.3116	15.9467	2173.622	0.7472	0.4343
0.232	1	23.2	0.44	96.29	0.0011	5275	24	19.54	662.1		0.232	1	23.2	10.224	0.0011	1479.595	1.4645	23.2525	15.8779	2166.8	0.7457	0.4373
0.242	1	24.2	0.48	96.04	0.0008	4996	25	19.53	639.7		0.242	1	24.2	10.228	0.0008	1485.548	1.5302	24.194	15.811	2273.186	0.7075	0.4542
0.252	1	25.2	0.53	96.47	0.0009	4951	25	19.53	633.8		0.252	1	25.2	10.233	0.0009	1477.05	1.5406	24.16	15.6822	2275.54	0.7015	0.4589
0.262	1	26.2	0.58	96.37	0.0006	4963	25	19.54	630.1		0.262	1	26.2	10.238	0.0006	1479.907	1.5369	24.1259	15.6982	2274.414	0.7037	0.4619
0.272	1	27.2	0.64	96.75	0.0006	5129	25	19.54	631.3		0.272	1	27.2	10.244	0.0006	1472.685	1.4957	24.0852	16.1034	2202.634	0.7276	0.4609
0.282	1	28.2	0.63	96.5	0.0005	4935	25	19.54	634.5		0.282	1	28.2	10.243	0.0005	1477.853	1.5431	24.092	15.6129	2280.454	0.7001	0.4584
0.292	1	29.2	0.7	96.28	0.0008	4868	25	19.53	646.9		0.292	1	29.2	10.25	0.0008	1483.572	1.5589	24.0446	15.4239	2312.771	0.6909	0.4487
0.302	1	30.2	0.78	96	0.0018	4811	26	19.53	646.7		0.302	1	30.2	10.258	0.0018	1490.772	1.5723	24.9502	15.8685	2343.946	0.6831	0.4488
0.312	1	31.2	0.91	96.08	0.0038	4771	26	19.54	617.4		0.312	1	31.2	10.271	0.0038	1490.927	1.5807	24.8592	15.7269	2356.684	0.6783	0.4724
0.322	1	32.2	1.14	96.13	0.0032	4817	26	19.54	610.7		0.322	1	32.2	10.294	0.0032	1493.182	1.5653	24.6995	15.7798	2337.224	0.6872	0.4781
0.332	1	33.2	1.31	96.24	0.0035	4811	26	19.53	600.7		0.332	1	33.2	10.311	0.0035	1493.266	1.5642	24.5823	15.7154	2335.799	0.6878	0.4869
0.342	1	34.2	1.21	95.73	0.0022	4759	27	19.53	588.2		0.342	1	34.2	10.301	0.0022	1502.918	1.5792	25.5993	16.2102	2373.414	0.6791	0.4984
0.352	1	35.2	2.63	96.67	0.0048	4735	26	19.54	576.2		0.352	1	35.2	10.443	0.0048	1503.022	1.5639	23.6986	15.1533	2350.614	0.688	0.5098
0.362	1	36.2	2.69	97.06	0.0006	4836	27	19.54	566.4		0.362	1	36.2	10.449	0.0006	1495.492	1.5373	24.5694	15.9827	2298.944	0.7035	0.5196
0.372	1	37.2	2.92	999	0	4710	27	19.54	556.5		0.372	1	37.2	10.472	0	1443.6455	1.5661	24.4146	15.5897	168.7563	0.6867	0.5297
0.382	1	38.2	3.09	999	0	4681	27	19.54	536		0.382	1	38.2	10.489	0	107.9326	1.5711	24.3011	15.4676	169.5723	0.6838	0.5521
0.392	1	39.2	3.05	999	0	4714	27	19.55	499.9		0.392	1	39.2	10.485	0	107.8915	1.5631	24.3277	15.5639	168.6443	0.6885	0.5964
0.402	1	40.2	2.82	108.41	0.0001	4737	28	19.54	442		0.402	1	40.2	10.462	0.0001	1288.106	1.5606	25.3885	16.2688	2010.177	0.6899	0.6831
0.412	1	41.2	2.6	96.47	0.0007	4669	28	19.54	356.9		0.412	1	41.2	10.44	0.0007	1506.928	1.5816	25.5426	16.1496	2383.402	0.6777	0.865
0.422	1	42.2	5.91	999	0	4700	29	19.55	274.5		0.422	1	42.2	10.771	0	110.8344	1.5251	24.1896	15.8607	169.0369	0.7105	1.1553
0.432	1	43.2	6.56	999	0	4902	29	19.55	232.9		0.432	1	43.2	10.836	0	111.5033	1.4665	23.7772	16.2139	163.5165	0.7445	1.3855
0.442	2	0.31	6.53	999	0	6815	30	19.55	245		0.442	2	0.3	10.833	0	111.4724	1.1	24.6166	22.3789	122.6188	0.9571	1.3102
0.452	2	1.31	5.98	142.33	0.0001	4701	29	19.55	305.6		0.452	2	1.3	10.778	0.0001	936.0778	1.5239	24.1447	15.8442	1426.476	0.7112	1.0263
0.462	2	2.31	5.93	999	0	4682	30	19.55	391.5		0.462	2	2.3	10.773	0.0001	980.1039	1.5294	25.0105	16.3529	169.5441	0.708	0.781
0.472	2	3.31	5.58	132.04	0.0001	4744	30	19.55	466.6		0.472	2	3.3	10.738	0.0001	1024.13	1.5187	25.2444	16.6224	1555.341	0.7142	0.6435
0.482	2	4.31	4.97	999	0	4821	31	19.55	523.2		0.482	2	4.3	10.677	0.0001	1088.9145	1.5081	26.5149	17.5813	165.6934	0.7203	0.5671
0.492	2	5.31	0.66	116	0.0001	4759	31	19.54	561.5		0.492	2	5.3	10.246	0.0001	1153.699	1.5877	29.8488	18.8003	1831.706	0.6742	0.5245
0.502	2	6.31	-0.03	105.89	0.0001	4853	31	19.55	580.9		0.502	2	6.3	10.177	0.0001	1293.139	1.574	30.4365	19.3376	2035.339	0.6822	0.5052
0.512	2	7.31	-0.16	115.54	0.0001	4849	32	19.55	592.3		0.512	2	7.3	10.164	0.0001	1150.424	1.577	31.5345	19.9965	1814.216	0.6804	0.4945
0.522	2	8.31	-0.28	110.39	0.0003	4866	31	19.56	598		0.522	2	8.3	10.152	0.0003	1220.192	1.5745	30.6534	19.4689	1921.171	0.6819	0.4893
0.532	2	9.31	-0.29	115.23	0.0005	4775	32	19.56	601.2		0.532	2	9.3	10.151	0.0005	1152.999	1.5983	31.6512	19.8029	1842.855	0.668	0.4864
0.542	2	10.31	-0.33	115.21	0.0007	4761	33	19.56	604.1		0.542	2	10.3	10.147	0.0007	1152.806	1.6026	32.6775	20.3898	1847.535	0.6655	0.4839
0.552	2	11.31	-0.34	115.23	0.0005	4816	34	19.56	600.8		0.552	2	11.3	10.146	0.0005	1152.431	1.5884	33.6773	21.2026	1830.47	0.6738	0.4868
0.562	2	12.31	-0.33	115.14	0.0004	4770	35	19.55	595.9		0.562	2	12.3	10.147	0.0004	1153.724	1.6003	34.6579	21.6576	1846.262	0.6669	0.4913
0.572	2	13.31	-0.33	116.16	0.0003	4727	36	19.56	593.3		0.572	2	13.3	10.147	0.0003	1140.497	1.6117	35.6481	22.1186	1838.116	0.6603	0.4936
0.582	2	14.31	-0.28	115.56	0.0004	4780	37	19.56	592.9		0.582	2	14.3	10.152	0.0004	1148.806	1.5968	36.5863	22.9117	1834.461	0.6689	0.4939
0.592	2	15.31	-0.25	115.89	0.0008	4752	39	19.56	596.5		0.592	2	15.3	10.155	0.0008	1144.87	1.6038	38.531	24.0254	1836.099	0.6649	0.4907
0.602	2	16.31	-0.22	115.61	0.0006	4770	39	19.56	600.8		0.602	2	16.3	10.158	0.0006	1148.835	1.5985	38.4982	24.0835	1836.448	0.6679	0.4868
0.612	2	17.31	-0.14	116.15	0.0004	4799	40	19.56	605.2		0.612	2	17.3	10.166	0.0004	1142.761	1.5897	39.3957	24.7824	1816.605	0.673	0.4829
0.622	2	18.31	-0.13	106.64	0.0004	4769	42	19.56	609.7		0.622	2	18.3	10.167	0.0004	1279.673	1.5974	41.3537	25.8885	2044.122	0.6686	0.4789
0.632	2	19.31	-0.07	115.44	0.0006	4799	43	19.55	613.2		0.632	2	19.3	10.173	0.0006	1152.748	1.5886	42.2663	26.6065	1831.22	0.6737	0.476
0.642	2	20.31	-0.03	116.12	0.0004	4802	44	19.56	614		0.642	2	20.3	10.177	0.0004	1144.383	1.5872	43.2002	27.2185	1816.322	0.6745	0.4752
0.652	2	21.31	0.03	116.02	0.0008	4853	45	19.56	612.2		0.652	2	21.3	10.183	0.0008	1146.347	1.573	44.1069	28.0395	1803.233	0.6827	0.4768
0.662	2	22.31	0.07	116.12	0.0008	4881	45	19.56	605.9		0.662	2	22.3	10.187	0.0008	1145.508	1.5652	44.0569	28.1471	1792.994	0.6872	0.4823
0.672	2	23.31	0.12	111.35	0.001	4588	46	19.56	603.8		0.672	2	23.3	10.192	0.001	1211.027	1.6423	44.9722	27.3842	1988.829	0.6425	0.4841
0.682	2	24.31	0.18	107.35	0.001	4532	47	19.56	606.2		0.682	2	24.3	10.198	0.001	1272.206	1.6569	45.8719	27.6852	2107.933	0.634	0.482
0.692	2	25.31	0.17	107.87	0.0007	4547	47	19.56	607.7		0.692	2	25.3	10.197	0.0007	1263.882	1.6529	45.8849	27.7608	2089.03	0.6364	0.4807
0.702	2	26.31	0.17	107.15	0.0008	4554	48	19.57	608.7		0.702	2	26.3	10.197	0.0008	1275.263	1.6509	46.8612	28.385	2105.344	0.6375	0.4799
0.712	2	27.31	0.17	106.54	0.0008	4691	49	19.56	606		0.712	2	27.3	10.197	0.0008	1285.066	1.6134	47.8374	29.6502	2073.319	0.6593	0.4822
0.722	2	28.31	0.21	106.54	0.0004	4689	51	19.57	600.5		0.722	2	28.3	10.201	0.0004	1285.57	1.6133	49.7337	30.8273	2074.01	0.6593	0.4871
0.732	2	29.31	0.22	112.43	0.0005	4642	54	19.56	595.8		0.732	2	29.3	10.202	0.0005	1196.856	1.6258	52.6443	32.3796	1945.904	0.6521	0.4913
0.742	2	30.31	0.18	95.86	0.001	4611	56	19.56	590.3		0.742	2	30.3	10.198	0.001	1485.073	1.635	54.6559	33.4295	2428.038	0.6468	0.4964
0.752	2	31.31	0.21	96.57	0.002	4566	59	19.57	581.2		0.752	2	31.3	10.201	0.002	1470.308	1.6469	57.535	34.9349	2421.479	0.6398	0.505
0.762	2	32.31	0.22	96.52	0.0011	4532	62	19.57	575.9		0.762	2	32.3	10.202	0.0011	1471.513	1.6563	60.4434	36.4939	2437.212	0.6344	0.5101
0.772	2	33.31	0.22	94.93	0.0011	4575	66	19.57	572.7		0.772	2	33.3	10.202	0.0011	1506.052	1.6443	64.343	39.132	2476.337	0.6414	0.5133
0.782	2	34.31	0.26	94.98	0.0007	4663	70	19.57	565.9		0.782	2	34.3	10.206	0.0007	1505.532	1.6195	68.1654	42.0901	2438.229	0.6557	0.5201
0.792	2	35.31	0.27	101.24	0.0012	4526	73	19.57	559.6		0.792	2	35.3	10.207	0.0012	1378.393	1.6571	71.0667	42.8852	2284.187	0.6339	0.5265
0.802	2	36.31	0.27	95.28	0.0013	4364	75	19.57	546.4		0.802	2	36.3	10.207	0.0013	1499.045	1.7038	73.0137	42.8526	2554.125	0.6068	0.5405
0.812	2	37.31	0.28	101.17	0.0016	4347	76	19.57	539.5		0.812	2	37.3	10.208	0.0016	1379.832	1.7087	73.9663	43.288	2357.722	0.604	0.5482
0.822	2	38.31	0.33	96.54	0.002	4374	77	19.58	529.7		0.822	2	38.3	10.213	0.002	1472.675	1.6999	74.8338	44.0228	2503.379	0.6091	0.5594
0.832	2	39.31	0.28	96.34	0.0015	4456	77	19.57	521.5		0.832	2	39.3	10.208	0.0015	1476.211	1.6769	74.9396	44.6901	2475.418	0.6225	0.5692
0.842	2	40.31	0.28	96.57	0.0012	4519	78	19.57	513.4		0.842	2	40.3	10.208	0.0012	1471.317	1.6589	75.9128	45.7597	2440.837	0.6329	0.579
0.852	2	41.31	0.24	99.41	0.0023	4488	81	19.57	504.5		0.852	2	41.3	10.204	0.0023	1412.905	1.6684	78.9218	47.3045	2357.261	0.6274	0.5904
0.862	2	42.31	0.23	100.09	0.0014	4384	84	19.57	494.2		0.862	2	42.3	10.203	0.0014	1399.589	1.6986	81.8679	48.197	2377.356	0.6099	0.6039
0.872	2	43.31	0.23	101.36	0.0017	4309	87	19.58	489.3		0.872	2	43.3	10.203	0.0017	1375.624	1.7209	84.7918	49.2719	2367.303	0.5969	0.6106
0.882	2	44.31	0.18	100.58	0.0008	4330	91	19.58	487.8		0.882	2	44.3	10.198	0.0008	1389.563	1.7154	88.8158	51.7743	2383.716	0.6001	0.6126
0.892	2	45.31	0.17	107.2	0.0008	4286	94	19.58	485.3		0.892	2	45.3	10.197	0.0008	1274.466	1.7289	91.7698	53.0814	2203.36	0.5923	0.6161
0.902	2	46.31	0.12	105.31	0.0006	4326	96	19.58	484.1		0.902	2	46.3	10.192	0.0006	1304.659	1.7177	93.8551	54.6416	2240.948	0.5988	0.6178
0.912	2	47.31	0.12	96.16	0.0006	4370	98	19.58	481.9		0.912	2	47.3	10.192	0.0006	1477.744	1.7046	95.8104	56.208	2518.916	0.6064	0.621
0.922	2	48.31	0.19	101.52	0.0005	4276	101	19.58	478.2		0.922	2	48.3	10.199	0.0005	1372.124	1.7315	98.5479	56.9133	2375.894	0.5908	0.6262
0.932	2	49.31	0.37	96.63	0.0006	4224	102	19.57	476.2		0.932	2	49.3	10.217	0.0006	1471.342	1.7444	99.0185	56.7638	2566.603	0.5833	0.6292
0.942	2	50.31	0.43	101.89	0.001	4195	105	19.58	474.3		0.942	2	50.3	10.223	0.001	1368.541	1.7524	101.7584	58.0697	2398.163	0.5787	0.6319
0.952	2	51.31	0.47	101.42	0.0007	4241	106	19.58	472.9		0.952	2	51.3	10.227	0.0007	1377.745	1.7375	102.6116	59.0581	2393.787	0.5873	0.6341
0.962	2	52.31	0.52	101.2	0.0012	4286	108	19.58	471		0.962	2	52.3	10.232	0.0012	1382.516	1.7229	104.4004	60.5945	2381.986	0.5957	0.6367
0.972	2	53.31	0.57	100.82	0.0005	4239	110	19.58	470.1		0.972	2	53.3	10.237	0.0005	1390.33	1.7364	106.184	61.1524	2414.145	0.5879	0.6382
0.982	2	54.31	0.79	100.09	0.0007	4214	113	19.58	468.5		0.982	2	54.3	10.259	0.0007	1407.27	1.7403	108.4067	62.2909	2449.114	0.5857	0.6406
0.992	2	55.31	0.91	94.45	0.0005	4163	116	19.58	466.3		0.992	2	55.3	10.271	0.0005	1527.059	1.7541	110.9103	63.2285	2678.644	0.5777	0.6439
1.002	2	56.31	1.05	94.1	0.0011	4054	119	19.59	464.6		1.002	2	56.3	10.285	0.0011	1537.14	1.7864	113.3329	63.4421	2745.945	0.5589	0.6465
1.012	2	57.31	1.04	94.42	0.0013	4219	123	19.58	462		1.012	2	57.3	10.284	0.0013	1529.674	1.7346	117.1752	67.5531	2653.318	0.589	0.6505
1.022	2	58.31	1.09	107.31	0.0004	4370	126	19.59	456.4		1.022	2	58.3	10.289	0.0004	1284.199	1.6885	119.8651	70.9891	2168.368	0.6157	0.6594
1.032	2	59.31	1.12	105.2	0.0003	4325	130	19.59	451.2		1.032	2	59.3	10.292	0.0003	1319.318	1.7013	123.5665	72.6325	2244.499	0.6083	0.6677
1.042	2	60.31	1.1	101.01	0.001	4117	134	19.58	442		1.042	2	60.3	10.29	0.001	1393.931	1.7654	127.4399	72.1895	2460.779	0.5711	0.6831
1.052	2	61.31	1.09	95.75	0.001	3995	138	19.59	436.2		1.052	2	61.3	10.289	0.001	1500.729	1.805	131.2808	72.7319	2708.81	0.5481	0.6931
1.062	2	62.31	0.99	100.92	0.0012	4012	143	19.59	432.2		1.062	2	62.3	10.279	0.0012	1394.141	1.8011	136.4192	75.7401	2511.054	0.5504	0.7002
1.072	2	63.31	0.94	94.32	0.0009	4055	146	19.59	431.7		1.072	2	63.3	10.274	0.0009	1530.463	1.788	139.4766	78.0076	2736.449	0.558	0.7012
1.082	2	64.31	0.89	94.12	0.002	4117	152	19.58	434.7		1.082	2	64.3	10.269	0.002	1534.29	1.769	145.4124	82.2021	2714.1	0.569	0.6958
1.092	2	65.31	0.79	94.7	0.0021	3936	157	19.59	438.8		1.092	2	65.3	10.259	0.0021	1519.627	1.83	150.6182	82.3044	2780.94	0.5336	0.6885
1.102	2	66.31	0.68	94.8	0.0037	4128	164	19.59	445.4		1.102	2	66.3	10.248	0.0037	1515.752	1.7691	157.8211	89.2102	2681.505	0.569	0.6773
1.112	2	67.31	0.66	94.83	0.003	4011	170	19.59	451.4		1.112	2	67.3	10.246	0.003	1514.784	1.8073	163.6871	90.571	2737.637	0.5468	0.6673
1.122	2	68.31	0.63	94.42	0.0038	4067	177	19.59	456.2		1.122	2	68.3	10.243	0.0038	1523.576	1.7895	170.5712	95.3175	2726.448	0.5571	0.6597
1.132	2	69.31	0.56	94.27	0.0034	3932	183	19.59	460.3		1.132	2	69.3	10.236	0.0034	1525.939	1.8355	176.7013	96.2697	2800.836	0.5305	0.6532
1.142	2	70.31	0.54	93.69	0.0031	3847	184	19.58	462.6		1.142	2	70.3	10.234	0.0031	1538.947	1.8651	177.7671	95.3114	2870.319	0.5133	0.6496
1.152	2	71.31	0.5	93.52	0.0029	3798	182	19.6	464.3		1.152	2	71.3	10.23	0.0029	1542.289	1.8831	176.0332	93.4786	2904.343	0.5028	0.6469
1.162	2	72.31	0.43	93.26	0.0029	3820	176	19.59	462.1		1.162	2	72.3	10.223	0.0029	1547.298	1.8766	170.5664	90.8901	2903.693	0.5066	0.6503
1.172	2	73.31	0.36	93.47	0.0042	3959	166	19.59	462.9		1.172	2	73.3	10.216	0.0042	1541.34	1.8299	161.1933	88.0866	2820.562	0.5337	0.6492
1.182	2	74.31	0.3	93.69	0.0036	4000	158	19.59	461.2		1.182	2	74.3	10.21	0.0036	1535.338	1.8173	153.6852	84.5679	2790.169	0.541	0.6517
1.192	2	75.31	0.23	93.96	0.0026	3996	151	19.59	459.8		1.192	2	75.3	10.203	0.0026	1528.082	1.8199	147.1673	80.8667	2780.92	0.5395	0.654
1.202	2	76.31	0.12	94.09	0.0043	3969	146	19.6	462.7		1.202	2	76.3	10.192	0.0043	1523.468	1.8309	142.7379	77.9613	2789.289	0.5331	0.6494
1.212	2	77.31	0.04	94.34	0.0071	4088	143	19.59	466.7		1.212	2	77.3	10.184	0.0071	1516.605	1.7931	140.1221	78.147	2719.362	0.5551	0.6433
1.222	2	78.31	-0.08	94.48	0.0063	4120	143	19.59	469.3		1.222	2	78.3	10.172	0.0063	1511.666	1.7849	140.5998	78.7732	2698.126	0.5598	0.6394
1.232	2	79.31	-0.14	94.07	0.0038	3947	143	19.6	469.9		1.232	2	79.3	10.166	0.0038	1520.036	1.843	140.8395	76.4182	2801.443	0.5261	0.6384
1.242	2	80.31	-0.19	93.42	0.0045	3943	143	19.59	468.2		1.242	2	80.3	10.161	0.0045	1534.199	1.8453	141.0397	76.4327	2831.025	0.5248	0.641
1.252	2	81.31	-0.24	93.59	0.0041	3934	145	19.6	464.9		1.252	2	81.3	10.156	0.0041	1529.518	1.8493	143.2157	77.445	2828.473	0.5225	0.646
1.262	2	82.31	-0.31	94.6	0.0014	4021	146	19.6	460.9		1.262	2	82.3	10.149	0.0014	1505.563	1.8212	144.4908	79.337	2741.973	0.5387	0.6523
1.272	2	83.31	-0.38	105.24	0.0012	3986	149	19.6	454.4		1.272	2	83.3	10.142	0.0012	1299.423	1.8342	147.7538	80.5559	2383.373	0.5312	0.6626
1.282	2	84.31	-0.36	93.5	0.0012	3975	152	19.6	449.3		1.282	2	84.3	10.144	0.0012	1529.784	1.8375	150.643	81.9817	2811.008	0.5293	0.6709
1.292	2	85.31	-0.33	93.7	0.0022	3929	156	19.6	442		1.292	2	85.3	10.147	0.0022	1525.635	1.8526	154.4753	83.3826	2826.406	0.5205	0.6831
1.302	2	86.31	-0.33	93.68	0.0051	3919	162	19.6	437.3		1.302	2	86.3	10.147	0.0051	1526.094	1.856	160.4166	86.4295	2832.494	0.5185	0.6911
1.312	2	87.31	-0.27	93.92	0.0063	3936	168	19.6	437.3		1.312	2	87.3	10.153	0.0063	1521.505	1.8491	166.0742	89.8126	2813.446	0.5226	0.6912
1.322	2	88.31	-0.28	92.89	0.0029	3722	174	19.6	436.7		1.322	2	88.3	10.152	0.0029	1545.205	1.9253	172.0544	89.3671	2974.913	0.4784	0.6922
1.332	2	89.31	-0.21	92.17	0.0018	3705	178	19.6	436.6		1.332	2	89.3	10.159	0.0018	1563.404	1.9302	175.6597	91.0053	3017.705	0.4755	0.6924
1.342	2	90.31	-0.21	92.54	0.0022	3664	178	19.61	434		1.342	2	90.3	10.159	0.0022	1554.552	1.9455	175.6597	90.2883	3024.448	0.4666	0.697
1.352	2	91.31	-0.22	92.27	0.0005	3696	173	19.61	459		1.352	2	91.3	10.158	0.0005	1560.848	1.9337	170.774	88.3124	3018.289	0.4735	0.6552
1.362	2	92.31	-0.22	103.2	0.0012	3889	166	19.61	452.9		1.362	2	92.3	10.158	0.0012	1336.403	1.8644	163.864	87.8916	2491.574	0.5137	0.6649
1.372	2	93.31	-0.22	104.85	0.0014	3893	160	19.61	451.3		1.372	2	93.3	10.158	0.0014	1308.009	1.863	157.9412	84.7779	2436.822	0.5145	0.6676
1.382	2	94.31	-0.22	92.65	0.0015	3736	156	19.61	449		1.382	2	94.3	10.158	0.0015	1551.787	1.919	153.9927	80.2476	2977.831	0.482	0.6713
1.392	2	95.31	-0.23	92.92	0.0025	3806	153	19.61	449		1.392	2	95.3	10.157	0.0025	1545.261	1.8938	151.0743	79.7727	2926.428	0.4966	0.6714
1.402	2	96.31	-0.17	93.17	0.0027	3829	151	19.61	450.8		1.402	2	96.3	10.163	0.0027	1540.315	1.8845	148.8454	78.9838	2902.734	0.502	0.6684
1.412	2	97.31	-0.18	93.41	0.0026	3824	148	19.6	451.8		1.412	2	97.3	10.162	0.0026	1534.582	1.8865	145.9297	77.3562	2894.935	0.5009	0.6667
1.422	2	98.31	-0.13	94.17	0.0011	3818	146	19.61	453.5		1.422	2	98.3	10.167	0.0011	1517.916	1.8877	143.7534	76.1539	2865.323	0.5002	0.664
1.432	2	99.31	-0.09	92.71	0.0002	3820	144	19.61	453.8		1.432	2	99.3	10.171	0.0002	1552.35	1.8862	141.6232	75.0833	2928.068	0.501	0.6636
