Geotek MSCL 7.9 - TN336_JPC32-37.raw created at 22:50:56 on 1/24/2016.											Geotek MSCL 7.9 - TN336_JPC32-37.out created at 22:52:07 on 1/24/2016.											
																						
																						
Core Depth	Section	Sect Depth	CTD 	Tr. Time 	PW Amp   	A Gamma  	Mag Sus  	Temp     	NC Res   		SB DEPTH	SECT NUM	SECT DEPTH	CT	PWAmp	PWVel	Den1	MS1	MS1	Imp	FP	RES
m		cm	mm	µsec		cps	SI x 10^-5	°C	mV		m		cm	cm		m/s	g/cc	SI x 10^-5	x 10^-8 (m^3/kg)			Ohm.m
																						
-0.638	cal	0.02	5.46	98.05	0.0022	13226	-1	17.72	4.9		-0.638	cal sect	0	10.726	0.0022							92.6082
-0.578	cal	6.02	3.01	95.97	0.0169	6470	-1	17.71	25.6		-0.578	cal sect	6	10.481	0.0169	1507.19	1.1604	-0.902			0.922	15.6156
-0.518	cal	12.02	0.44	95.6	0.0321	6752	-1	17.71	27.8		-0.518	cal sect	12	10.224	0.0321	1478.098	1.1369	-0.9689	-0.8522	1680.408	0.9357	14.2869
-0.458	cal	18.02	0.66	95.73	0.0192	6824	-2	17.71	27.5		-0.458	cal sect	18	10.246	0.0192	1478.499	1.1214	-1.9257	-1.7172	1658.039	0.9446	14.4268
-0.398	cal	24.02	3.49	96.91	0.0012	6536	-2	17.71	37.2		-0.398	cal sect	24	10.529	0.0012	1493.899	1.1429	-1.7805	-1.5579	1707.378	0.9322	10.4356
-0.338	cal	30.02	5.51	97.84	0.0071	6714	-2	17.71	96.9		-0.338	cal sect	30	10.731	0.0071	1502.731	1.0898	-1.6861	-1.5472	1637.638	0.963	3.7151
-0.278	cal	36.02	4.91	96.92	0.0126	6605	-2	17.71	611.5		-0.278	cal sect	36	10.671	0.0126	1513.832	1.1152	-1.7134	-1.5363	1688.292	0.9482	0.5107
-0.218	cal	42.02	1.56	95.4	0.0048	6623	-2	17.71	794.6		-0.218	cal sect	42	10.336	0.0048	1498.622	1.1481	-1.8778	-1.6356	1720.516	0.9292	0.3851
-0.158	cal	48.02	0.9	95.12	0.0333	6610	-1	17.71	789.7		-0.158	cal sect	48	10.27	0.0333	1495.123	1.1579	-0.9564	-0.826	1731.142	0.9235	0.3877
-0.098	cal	54.02	2.03	95.86	0.0111	6666	-1	17.72	771.2		-0.098	cal sect	54	10.383	0.0111	1495.463	1.135	-0.9267	-0.8165	1697.358	0.9368	0.3977
-0.038	cal	60.02	2.81	95.36	0.0079	6454	2	17.72	562.2		-0.038	cal sect	60	10.461	0.0079	1517.626	1.1656	1.814	1.5562	1769	0.919	0.5591
0.002	1	0.2	7.21	999	0	9136	12	17.73	263.2		0.002	1	0.2	10.901	0	112.0845	0.7288	9.6723	13.2723	81.682	1.1724	1.2667
0.012	1	1.2	7.83	999	0	4911	15	17.73	296.6		0.012	1	1.2	10.963	0	112.722	1.4395	11.8963	8.2644	162.2596	0.7602	1.1135
0.022	1	2.2	7.63	105.78	0.0001	5073	16	17.74	366.8		0.022	1	2.2	10.943	0.0001	1379.08	1.402	12.7557	9.0984	1933.432	0.7819	0.8856
0.032	1	3.2	7.22	98	0.0004	4906	17	17.74	450		0.032	1	3.2	10.902	0.0004	1523.264	1.4488	13.6988	9.4553	2206.892	0.7548	0.7106
0.042	1	4.2	6.81	999	0	4955	18	17.73	519.6		0.042	1	4.2	10.861	0	111.6732	1.4418	14.6614	10.1686	161.015	0.7588	0.6086
0.052	1	5.2	2.14	95.03	0.0009	5080	18	17.74	569.7		0.052	1	5.2	10.394	0.0009	1515.16	1.4742	16.6302	11.2805	2233.704	0.74	0.5511
0.062	1	6.2	1.33	95.39	0.0024	5094	19	17.73	604.2		0.062	1	6.2	10.313	0.0024	1495.505	1.4822	17.954	12.1129	2216.671	0.7354	0.5173
0.072	1	7.2	0.86	95.17	0.0063	5136	19	17.74	621.8		0.072	1	7.2	10.266	0.0063	1493.454	1.4783	18.1919	12.3063	2207.707	0.7377	0.5016
0.082	1	8.2	0.52	95.02	0.0033	5204	19	17.74	630.1		0.082	1	8.2	10.232	0.0033	1491.763	1.4659	18.3667	12.529	2186.826	0.7448	0.4945
0.092	1	9.2	0.3	95.24	0.0065	5275	20	17.74	634.1		0.092	1	9.2	10.21	0.0065	1483.796	1.4514	19.4538	13.4039	2153.523	0.7533	0.4911
0.102	1	10.2	0.26	95.22	0.0117	5178	20	17.74	634.2		0.102	1	10.2	10.206	0.0117	1483.646	1.4762	19.4758	13.1929	2190.219	0.7388	0.4911
0.112	1	11.2	0.26	95.27	0.0104	5097	20	17.74	632.5		0.112	1	11.2	10.206	0.0104	1482.568	1.497	19.4758	13.01	2219.384	0.7268	0.4924
0.122	1	12.2	0.24	95.3	0.0044	5259	20	17.74	627.1		0.122	1	12.2	10.204	0.0044	1481.632	1.4562	19.4869	13.3821	2157.532	0.7505	0.497
0.132	1	13.2	0.22	94.54	0.0057	5005	21	17.74	620.6		0.132	1	13.2	10.202	0.0057	1497.871	1.5217	20.4728	13.4543	2279.241	0.7125	0.5026
0.142	1	14.2	0.18	94.84	0.0134	4922	21	17.74	613.3		0.142	1	14.2	10.198	0.0134	1490.718	1.5445	20.496	13.2706	2302.367	0.6993	0.509
0.152	1	15.2	0.19	94.98	0.0068	4952	21	17.75	606.8		0.152	1	15.2	10.199	0.0068	1487.819	1.5362	20.4902	13.3379	2285.637	0.704	0.5149
0.162	1	16.2	0.19	94.94	0.0047	4905	22	17.75	601.1		0.162	1	16.2	10.199	0.0047	1488.688	1.5489	21.4659	13.8586	2305.867	0.6967	0.5202
0.172	1	17.2	0.24	94.86	0.0073	4907	22	17.74	596.6		0.172	1	17.2	10.204	0.0073	1491.159	1.5476	21.4355	13.8506	2307.753	0.6974	0.5245
0.182	1	18.2	0.29	94.77	0.0101	4829	22	17.75	592		0.182	1	18.2	10.209	0.0101	1493.854	1.5682	21.4053	13.6492	2342.725	0.6855	0.5288
0.192	1	19.2	0.34	94.7	0.0068	4895	22	17.76	591.1		0.192	1	19.2	10.214	0.0068	1496.118	1.5494	21.375	13.796	2318.038	0.6964	0.5297
0.202	1	20.2	0.39	94.65	0.0098	4783	22	17.76	592.6		0.202	1	20.2	10.219	0.0098	1497.948	1.5795	21.3449	13.5136	2366.018	0.6789	0.5282
0.212	1	21.2	0.44	94.52	0.0079	4776	22	17.75	592.9		0.212	1	21.2	10.224	0.0079	1501.542	1.5807	21.3148	13.4844	2373.48	0.6783	0.528
0.222	1	22.2	0.44	94.86	0.0102	4897	22	17.75	595.5		0.222	1	22.2	10.224	0.0102	1494.082	1.5473	21.3148	13.7754	2311.805	0.6976	0.5254
0.232	1	23.2	0.55	94.91	0.0169	4812	22	17.75	597.7		0.232	1	23.2	10.235	0.0169	1494.597	1.569	21.2488	13.5432	2344.967	0.6851	0.5234
0.242	1	24.2	0.56	94.82	0.0138	4859	23	17.76	596.8		0.242	1	24.2	10.236	0.0138	1496.71	1.5559	22.2084	14.2741	2328.662	0.6927	0.5242
0.252	1	25.2	0.64	94.69	0.0194	4963	23	17.75	596.5		0.252	1	25.2	10.244	0.0194	1500.732	1.5265	22.1584	14.5153	2290.942	0.7097	0.5245
0.262	1	26.2	0.69	94.99	0.0245	4966	23	17.76	593.1		0.262	1	26.2	10.249	0.0245	1494.895	1.525	22.1272	14.5096	2279.723	0.7106	0.5278
0.272	1	27.2	0.77	95.21	0.0135	4832	24	17.75	592.9		0.272	1	27.2	10.257	0.0135	1491.277	1.5601	23.0374	14.7668	2326.505	0.6902	0.528
0.282	1	28.2	0.88	95.08	0.0132	4853	24	17.76	589.1		0.282	1	28.2	10.268	0.0132	1495.703	1.5526	22.9663	14.7917	2322.296	0.6945	0.5316
0.292	1	29.2	0.86	95.36	0.0142	4867	24	17.75	585		0.292	1	29.2	10.266	0.0142	1489.337	1.5491	22.9792	14.8337	2307.168	0.6966	0.5356
0.302	1	30.2	0.9	96.03	0.0073	4850	24	17.76	583.2		0.302	1	30.2	10.27	0.0073	1475.575	1.5532	22.9534	14.7785	2291.809	0.6942	0.5374
0.312	1	31.2	0.95	96.53	0.0067	4830	25	17.76	569.5		0.312	1	31.2	10.275	0.0067	1465.763	1.5579	23.8763	15.326	2283.503	0.6915	0.5514
0.322	1	32.2	0.95	107.36	0.0048	4862	26	17.76	561.6		0.322	1	32.2	10.275	0.0048	1269.616	1.5491	24.8313	16.0292	1966.8	0.6966	0.5597
0.332	1	33.2	0.96	101.81	0.0037	4823	26	17.76	546.7		0.332	1	33.2	10.276	0.0037	1363.226	1.5597	24.8244	15.9164	2126.181	0.6904	0.5761
0.342	1	34.2	0.94	96.75	0.0034	4873	26	17.76	533.8		0.342	1	34.2	10.274	0.0034	1461.035	1.5463	24.8383	16.0632	2259.177	0.6982	0.5912
0.352	1	35.2	0.91	96.46	0.0027	4701	27	17.76	520.8		0.352	1	35.2	10.271	0.0027	1466.657	1.5946	25.8153	16.1892	2338.733	0.6702	0.6072
0.362	1	36.2	0.96	96.31	0.0028	4670	27	17.78	511.4		0.362	1	36.2	10.276	0.0028	1470.521	1.6027	25.7791	16.085	2356.781	0.6655	0.6191
0.372	1	37.2	0.97	96.37	0.0023	4536	28	17.77	500.8		0.372	1	37.2	10.277	0.0023	1469.402	1.6417	26.7264	16.2798	2412.314	0.6429	0.6333
0.382	1	38.2	0.96	96.79	0.002	4506	28	17.78	492		0.382	1	38.2	10.276	0.002	1460.489	1.6508	26.7339	16.1942	2411.018	0.6376	0.6455
0.392	1	39.2	0.9	96.61	0.0016	4689	27	17.77	485.7		0.392	1	39.2	10.27	0.0016	1463.38	1.5982	25.8226	16.1575	2338.743	0.6681	0.6545
0.402	1	40.2	0.94	101.53	0.0028	4761	27	17.77	480.7		0.402	1	40.2	10.274	0.0028	1368.043	1.5772	25.7936	16.3541	2157.67	0.6803	0.6619
0.412	1	41.2	0.92	101.77	0.0031	4782	26	17.77	480.8		0.412	1	41.2	10.272	0.0031	1363.419	1.5716	24.8523	15.813	2142.798	0.6835	0.6616
0.422	1	42.2	0.83	107.03	0.0028	4853	26	17.78	483.3		0.422	1	42.2	10.263	0.0028	1273.325	1.5534	24.9151	16.0391	1977.985	0.6941	0.658
0.432	1	43.2	0.86	97.04	0.0018	4768	25	17.78	489.2		0.432	1	43.2	10.266	0.0018	1453.902	1.5765	23.9367	15.1838	2292.023	0.6807	0.6495
0.442	1	44.2	0.86	101.67	0.0042	4692	24	17.78	494		0.442	1	44.2	10.266	0.0042	1364.434	1.5979	22.9792	14.3805	2180.29	0.6682	0.6426
0.452	1	45.2	0.84	106.85	0.0033	4709	24	17.77	499.9		0.452	1	45.2	10.264	0.0033	1276.299	1.5934	22.9921	14.4295	2033.671	0.6709	0.6346
0.462	1	46.2	0.8	97.62	0.0018	4737	23	17.78	503.4		0.462	1	46.2	10.26	0.0018	1441.214	1.5861	22.0589	13.9076	2285.908	0.6751	0.6298
0.472	1	47.2	0.8	97.56	0.0019	4840	23	17.78	504.1		0.472	1	47.2	10.26	0.0019	1442.429	1.5574	22.0589	14.1637	2246.469	0.6918	0.6288
0.482	1	48.2	0.75	97.43	0.0019	4802	23	17.79	506.2		0.482	1	48.2	10.255	0.0019	1444.366	1.5687	22.0899	14.0819	2265.741	0.6852	0.6261
0.492	1	49.2	0.95	96.63	0.002	4841	22	17.78	507.5		0.492	1	49.2	10.275	0.002	1463.675	1.5549	21.0111	13.5131	2275.828	0.6932	0.6243
0.502	1	50.2	1.05	96.18	0.002	4871	22	17.79	511.4		0.502	1	50.2	10.285	0.002	1474.552	1.5452	20.9523	13.5598	2278.441	0.6989	0.6192
0.512	1	51.2	1.17	96.43	0.002	4899	22	17.78	520.3		0.512	1	51.2	10.297	0.002	1471	1.5358	20.882	13.5968	2259.162	0.7043	0.6077
0.522	1	52.2	1.2	96.32	0.0021	4834	22	17.78	524.9		0.522	1	52.2	10.3	0.0021	1473.745	1.553	20.8645	13.4348	2288.748	0.6943	0.602
0.532	1	53.2	1.32	96.43	0.0027	4877	22	17.79	526.9		0.532	1	53.2	10.312	0.0027	1473.143	1.5395	20.7946	13.5073	2267.909	0.7021	0.5995
0.542	1	54.2	1.25	96.66	0.0023	4830	21	17.79	525.4		0.542	1	54.2	10.305	0.0023	1467.322	1.5534	19.8883	12.8034	2279.276	0.6941	0.6014
0.552	1	55.2	1.46	101.63	0.0031	4855	22	17.78	524.9		0.552	1	55.2	10.326	0.0031	1373.138	1.5434	20.7135	13.4209	2119.275	0.6999	0.602
0.562	1	56.2	1.45	96.16	0.0035	4795	22	17.78	520.5		0.562	1	56.2	10.325	0.0035	1480.711	1.56	20.7193	13.2818	2309.867	0.6903	0.6075
0.572	1	57.2	1.37	95.95	0.0042	4830	23	17.79	517.3		0.572	1	57.2	10.317	0.0042	1484.033	1.5516	21.7095	13.9921	2302.554	0.6952	0.6115
0.582	1	58.2	1.35	101.56	0.003	4765	22	17.79	513.6		0.582	1	58.2	10.315	0.003	1372.953	1.5698	20.7772	13.2355	2155.277	0.6846	0.6163
0.592	1	59.2	1.25	95.69	0.0023	4728	22	17.79	508		0.592	1	59.2	10.305	0.0023	1487.872	1.5817	20.8353	13.1727	2353.376	0.6777	0.6236
0.602	1	60.2	1.26	95.85	0.0036	4792	22	17.79	505.4		0.602	1	60.2	10.306	0.0036	1484.587	1.5637	20.8295	13.3208	2321.415	0.6881	0.6271
0.612	1	61.2	1.16	95.56	0.0059	4774	22	17.79	499.2		0.612	1	61.2	10.296	0.0059	1489.368	1.5702	20.8879	13.3027	2338.602	0.6843	0.6354
0.622	1	62.2	1.05	95.29	0.004	4769	22	17.79	493.8		0.622	1	62.2	10.285	0.004	1493.61	1.5733	20.9523	13.3177	2349.855	0.6826	0.643
0.632	1	63.2	1.1	94.99	0.0038	4790	21	17.79	488.7		0.632	1	63.2	10.29	0.0038	1500.875	1.5667	19.9719	12.7481	2351.367	0.6864	0.6503
0.642	1	64.2	0.98	94.93	0.0037	4817	21	17.79	487.6		0.642	1	64.2	10.278	0.0037	1500.438	1.561	20.0392	12.8373	2342.211	0.6897	0.6518
0.652	1	65.2	1.03	95.09	0.0022	5007	22	17.8	485.9		0.652	1	65.2	10.283	0.0022	1497.67	1.5091	20.964	13.8914	2260.197	0.7198	0.6543
0.662	1	66.2	0.98	95.33	0.0025	4789	21	17.8	484.5		0.662	1	66.2	10.278	0.0025	1491.727	1.5688	20.0392	12.7738	2340.178	0.6852	0.6563
0.672	1	67.2	0.94	96.11	0.003	4697	21	17.8	485.4		0.672	1	67.2	10.274	0.003	1474.455	1.5953	20.0617	12.5757	2352.16	0.6698	0.6549
0.682	1	68.2	0.88	95.92	0.0037	4690	21	17.8	482		0.682	1	68.2	10.268	0.0037	1477.623	1.5982	20.0955	12.5738	2361.543	0.6681	0.6599
0.692	1	69.2	0.83	96.11	0.0037	4743	21	17.79	489.6		0.692	1	69.2	10.263	0.0037	1472.876	1.5839	20.1238	12.7048	2332.954	0.6764	0.6489
0.702	1	70.2	0.78	106.44	0.0031	4725	21	17.8	488.2		0.702	1	70.2	10.258	0.0031	1282.09	1.5898	20.1521	12.6758	2038.269	0.673	0.6509
0.712	1	71.2	0.79	106.59	0.002	4676	20	17.81	484.3		0.712	1	71.2	10.259	0.002	1279.815	1.6036	19.187	11.9649	2052.333	0.665	0.6565
0.722	1	72.2	0.69	107.19	0.0026	4751	20	17.8	481.9		0.722	1	72.2	10.249	0.0026	1269.069	1.5839	19.2411	12.1483	2010.019	0.6764	0.66
0.732	1	73.2	0.69	107.45	0.0024	4690	19	17.81	486		0.732	1	73.2	10.249	0.0024	1264.996	1.6012	18.279	11.4161	2025.471	0.6664	0.6541
0.742	1	74.2	0.65	106.81	0.002	4684	19	17.81	491.1		0.742	1	74.2	10.245	0.002	1274.571	1.6035	18.2996	11.4122	2043.789	0.665	0.6467
0.752	1	75.2	0.64	106.71	0.0015	4705	19	17.81	494.3		0.752	1	75.2	10.244	0.0015	1276.034	1.5977	18.3048	11.4572	2038.672	0.6684	0.6422
0.762	1	76.2	0.59	106.91	0.0016	4695	19	17.81	494.1		0.762	1	76.2	10.239	0.0016	1272.241	1.6013	18.3305	11.4473	2037.24	0.6663	0.6425
0.772	1	77.2	0.54	106.9	0.0022	4693	19	17.81	493		0.772	1	77.2	10.234	0.0022	1271.778	1.6027	18.3564	11.4537	2038.222	0.6655	0.6441
0.782	1	78.2	0.55	106.84	0.0018	4698	19	17.82	496		0.782	1	78.2	10.235	0.0018	1272.852	1.6011	18.3512	11.4619	2037.922	0.6664	0.6399
0.792	1	79.2	0.47	107.13	0.0021	4680	19	17.81	497.4		0.792	1	79.2	10.227	0.0021	1267.286	1.6075	18.3926	11.4419	2037.142	0.6627	0.638
0.802	1	80.2	0.39	106.75	0.0019	4672	19	17.81	499.9		0.802	1	80.2	10.219	0.0019	1272.286	1.611	18.4342	11.4424	2049.712	0.6606	0.6345
0.812	1	81.2	0.44	106.83	0.0037	4683	19	17.81	499.6		0.812	1	81.2	10.224	0.0037	1271.642	1.6071	18.4082	11.4544	2043.646	0.6629	0.6349
0.822	1	82.2	0.34	107.08	0.003	4634	19	17.81	499.6		0.822	1	82.2	10.214	0.003	1266.46	1.6229	18.4603	11.3752	2055.285	0.6538	0.6349
0.832	1	83.2	0.35	106.99	0.0024	4619	19	17.82	503.1		0.832	1	83.2	10.215	0.0024	1267.999	1.6271	18.4551	11.3424	2063.137	0.6513	0.6301
0.842	1	84.2	0.29	106.85	0.003	4661	19	17.82	508.5		0.842	1	84.2	10.209	0.003	1269.46	1.6158	18.4864	11.441	2051.201	0.6579	0.623
0.852	1	85.2	0.27	106.53	0.0033	4561	19	17.82	508.5		0.852	1	85.2	10.207	0.0033	1274.282	1.6455	18.4968	11.2409	2096.814	0.6407	0.6229
0.862	1	86.2	0.41	106.88	0.0045	4634	19	17.82	509.7		0.862	1	86.2	10.221	0.0045	1270.479	1.6217	18.4238	11.3605	2060.394	0.6544	0.6214
0.872	1	87.2	0.42	106.79	0.0034	4688	19	17.98	509		0.872	1	87.2	10.222	0.0034	1272.026	1.606	18.4186	11.4688	2042.836	0.6636	0.6223
0.882	1	88.2	0.36	106.84	0.0037	4722	18	17.99	508.3		0.882	1	88.2	10.216	0.0037	1270.489	1.5972	17.4788	10.9435	2029.214	0.6687	0.6232
0.892	1	89.2	0.42	106.58	0.0031	4704	19	17.98	509.2		0.892	1	89.2	10.222	0.0031	1275.359	1.6014	18.4186	11.5017	2042.343	0.6662	0.622
0.902	1	90.2	0.42	106.85	0.0062	4766	18	17.98	508.9		0.902	1	90.2	10.222	0.0062	1271.077	1.5838	17.4492	11.0172	2013.146	0.6764	0.6224
0.912	1	91.2	0.42	101.24	0.0051	4719	18	17.98	508		0.912	1	91.2	10.222	0.0051	1366.395	1.5971	17.4492	10.9255	2182.28	0.6687	0.6237
0.922	1	92.2	0.42	101.28	0.007	4651	18	17.98	508.8		0.922	1	92.2	10.222	0.007	1365.665	1.6166	17.4492	10.7935	2207.797	0.6574	0.6225
0.932	1	93.2	0.42	96.67	0.0042	4674	18	17.99	510.4		0.932	1	93.2	10.222	0.0042	1455.296	1.61	17.4492	10.838	2343.023	0.6613	0.6205
0.942	1	94.2	0.49	96.2	0.0038	4660	18	17.99	511.6		0.942	1	94.2	10.229	0.0038	1466.103	1.6129	17.4148	10.797	2364.729	0.6596	0.6189
0.952	1	95.2	0.59	96.38	0.0033	4657	18	17.99	510.5		0.952	1	95.2	10.239	0.0033	1463.76	1.6122	17.3658	10.7713	2359.913	0.66	0.6203
0.962	1	96.2	0.58	96.45	0.0029	4636	18	17.99	510.4		0.962	1	96.2	10.238	0.0029	1462.154	1.6185	17.3707	10.7328	2366.455	0.6563	0.6204
0.972	1	97.2	0.69	96.19	0.0028	4654	18	17.99	510.6		0.972	1	97.2	10.249	0.0028	1469.18	1.6115	17.317	10.7457	2367.613	0.6604	0.6201
0.982	1	98.2	0.68	96.25	0.004	4611	17	17.99	512.8		0.982	1	98.2	10.248	0.004	1467.774	1.6242	16.3595	10.0725	2383.928	0.653	0.6174
0.992	1	99.2	0.89	95.76	0.0046	4610	17	18	514.4		0.992	1	99.2	10.269	0.0046	1481.177	1.6211	16.2632	10.0319	2401.209	0.6548	0.6153
1.002	1	100.2	0.91	95.74	0.0041	4658	17	17.99	519.2		1.002	1	100.2	10.271	0.0041	1481.893	1.6069	16.2541	10.1151	2381.277	0.663	0.6091
1.012	1	101.2	0.76	96.04	0.0033	4725	17	18	519.8		1.012	1	101.2	10.256	0.0033	1473.351	1.5901	16.3227	10.2652	2342.794	0.6728	0.6084
1.022	1	102.2	0.8	96.28	0.0034	4677	17	18	521.6		1.022	1	102.2	10.26	0.0034	1468.862	1.6032	16.3044	10.1701	2354.841	0.6652	0.6061
1.032	1	103.2	0.96	101.6	0.0029	4665	17	18	521.9		1.032	1	103.2	10.276	0.0029	1367.035	1.6041	16.2313	10.1185	2192.888	0.6647	0.6058
1.042	1	104.2	0.95	101.86	0.0027	4718	18	18	520.2		1.042	1	104.2	10.275	0.0027	1362.19	1.5892	17.1909	10.8177	2164.729	0.6733	0.6079
1.052	1	105.2	1.1	101.52	0.0033	4703	18	18	517.5		1.052	1	105.2	10.29	0.0033	1370.356	1.5911	17.1188	10.7592	2180.357	0.6722	0.6112
1.062	1	106.2	1.17	96.52	0.0034	4637	18	18	513.7		1.062	1	106.2	10.297	0.0034	1469.111	1.6089	17.0853	10.6192	2363.667	0.6619	0.6162
1.072	1	107.2	1.21	96.11	0.0037	4664	18	18	495.3		1.072	1	107.2	10.301	0.0037	1478.329	1.6005	17.0662	10.6629	2366.087	0.6668	0.6409
1.082	1	108.2	1.33	95.88	0.0032	4690	19	18	494.6		1.082	1	108.2	10.313	0.0032	1484.953	1.5912	17.954	11.2831	2362.904	0.6721	0.6418
1.092	1	109.2	1.4	96.01	0.004	4632	19	18.01	493.9		1.092	1	109.2	10.32	0.004	1483.185	1.6068	17.9189	11.1522	2383.131	0.6631	0.6428
1.102	1	110.2	1.49	95.99	0.0041	4668	20	18	494.3		1.102	1	110.2	10.329	0.0041	1484.905	1.595	18.8147	11.7958	2368.471	0.6699	0.6422
1.112	1	111.2	1.54	96.04	0.004	4649	20	18	496.4		1.112	1	111.2	10.334	0.004	1484.557	1.5997	18.7885	11.745	2374.844	0.6672	0.6394
1.122	1	112.2	1.66	95.82	0.0044	4706	20	18.01	499.4		1.122	1	112.2	10.346	0.0044	1490.993	1.5816	18.7258	11.8396	2358.198	0.6777	0.6352
1.132	1	113.2	1.73	96.05	0.0038	4674	20	18.01	497.1		1.132	1	113.2	10.353	0.0038	1487.073	1.5896	18.6894	11.7571	2363.889	0.6731	0.6384
1.142	1	114.2	1.72	96.08	0.0021	4687	21	18.01	498.3		1.142	1	114.2	10.352	0.0021	1486.289	1.5861	19.6293	12.3759	2357.382	0.6751	0.6367
1.152	1	115.2	2.03	95.73	0.0016	4764	22	18.01	500.2		1.152	1	115.2	10.383	0.0016	1498.268	1.5598	20.3878	13.0707	2337.009	0.6904	0.634
1.162	1	116.2	2.24	96.32	0.0022	4722	22	18	500.2		1.162	1	116.2	10.404	0.0022	1488.625	1.5683	20.2696	12.9243	2334.656	0.6854	0.6341
1.172	1	117.2	2.55	96.22	0.0011	4690	22	18.02	502.8		1.172	1	117.2	10.435	0.0011	1495.2	1.5726	20.0969	12.7792	2351.392	0.6829	0.6306
1.182	1	118.2	4.22	96.76	0.0003	4729	22	18.01	500.6		1.182	1	118.2	10.602	0.0003	1507.465	1.5371	19.2011	12.4916	2317.159	0.7035	0.6336
1.192	1	119.2	4.28	97.2	0.0003	4666	23	18.02	494.5		1.192	1	119.2	10.608	0.0003	1498.94	1.5536	20.0413	12.8996	2328.81	0.6939	0.642
1.202	1	120.2	4.31	97.74	0.0002	4634	23	18.02	484		1.202	1	120.2	10.611	0.0002	1488.01	1.5621	20.0251	12.819	2324.48	0.689	0.657
1.212	1	121.2	3.83	97.72	0.0003	4662	23	18.01	463.3		1.212	1	121.2	10.563	0.0003	1481.694	1.5614	20.2872	12.9932	2313.48	0.6895	0.6886
1.222	1	122.2	3.84	97.43	0.0002	4637	23	18.02	432.2		1.222	1	122.2	10.564	0.0002	1487.887	1.5682	20.2817	12.9327	2333.372	0.6855	0.7422
1.232	1	123.2	3.56	96.48	0.001	4602	23	18.03	380.4		1.232	1	123.2	10.536	0.001	1504.068	1.5823	20.4368	12.9155	2379.956	0.6773	0.8517
1.242	1	124.2	4.09	97.57	0.0007	4573	22	18.02	303.6		1.242	1	124.2	10.589	0.0007	1488.473	1.5827	19.2688	12.1747	2355.788	0.6771	1.0858
1.252	1	125.2	5.76	999	0	4532	21	18.02	225.8		1.252	1	125.2	10.756	0	110.5936	1.5697	17.5866	11.2036	173.6016	0.6846	1.4941
1.262	1	126.2	6.67	999	0	6946	21	18.02	183.8		1.262	1	126.2	10.847	0	111.5293	1.0389	17.1681	16.5261	115.8624	0.9925	1.8646
1.272	2	0.55	6.96	999	0	6892	21	18.02	191.6		1.272	2	0.6	10.876	0	111.8274	1.0451	17.0377	16.3032	116.8657	0.9889	1.7835
1.282	2	1.55	7.12	999	0	4590	21	18.02	242.2		1.282	2	1.6	10.892	0	111.9919	1.5339	16.9664	11.0606	171.7892	0.7054	1.3854
1.292	2	2.55	7.41	999	0	4529	21	18.03	308		1.292	2	2.6	10.921	0	112.2901	1.5469	16.8382	10.8854	173.6962	0.6979	1.0692
1.302	2	3.55	7.04	999	0	4519	21	18.03	369.1		1.302	2	3.6	10.884	0	111.9097	1.5549	17.002	10.9343	174.0119	0.6932	0.8799
1.312	2	4.55	6.36	999	0	4550	21	18.03	414		1.312	2	4.6	10.816	0	111.2105	1.5559	17.3091	11.1246	173.036	0.6926	0.7775
1.322	2	5.55	2.15	999	0	4654	21	18.03	444.2		1.322	2	5.6	10.395	0	106.8818	1.5889	19.3965	12.2076	169.823	0.6735	0.7206
1.332	2	6.55	1.34	999	0	4694	20	18.04	464		1.332	2	6.6	10.314	0	106.0489	1.5899	18.8936	11.8832	168.6114	0.6729	0.6875
1.342	2	7.55	0.53	999	0	4701	19	18.04	475.3		1.342	2	7.6	10.233	0	105.2161	1.6005	18.3616	11.4722	168.4007	0.6668	0.67
