Geotek MSCL 7.9 - TN336_BB36-41.raw created at 11:29:30 on 1/25/2016.											Geotek MSCL 7.9 - TN336_BB36-41_redo.out created at 14:12:30 on 1/25/2016.											
																						
																						
Core Depth	Section	Sect Depth	CTD 	Tr. Time 	PW Amp   	A Gamma  	Mag Sus  	Temp     	NC Res   		SB DEPTH	SECT NUM	SECT DEPTH	CT	PWAmp	PWVel	Den1	MS1	MS1	Imp	FP	RES
m		cm	mm	µsec		cps	SI x 10^-5	°C	mV		m		cm	cm		m/s	g/cc	SI x 10^-5	x 10^-8 (m^3/kg)			Ohm.m
																						
0.002	1	0.2	6.39	999	0	7068	15	19.02	260.6		0.002	1	0.2	10.819	0	111.2414	1.0215	12.3538	12.0941	113.6306	1.0026	1.2801
0.012	1	1.2	5.98	999	0	5723	18	19.02	311.5		0.012	1	1.2	10.778	0	110.8198	1.275	14.9864	11.7538	141.2983	0.8556	1.0561
0.022	1	2.2	5.77	999	0	5636	21	19.03	399.1		0.022	1	2.2	10.757	0	110.6039	1.2962	17.5819	13.5646	143.3606	0.8433	0.8088
0.032	1	3.2	5.48	132.05	0.0001	5588	22	19.03	484.5		0.032	1	3.2	10.728	0.0001	1015.717	1.3101	18.562	14.168	1330.727	0.8352	0.6562
0.042	1	4.2	4.79	999	0	5754	24	19.04	543.8		0.042	1	4.2	10.659	0.0001	1076.822	1.2826	20.6271	16.0817	140.5729	0.8511	0.5795
0.052	1	5.2	0.09	115.97	0.0001	5698	24	19.04	581.8		0.052	1	5.2	10.189	0.0001	1137.927	1.3544	23.4837	17.3394	1541.154	0.8095	0.5388
0.062	1	6.2	-0.21	116.49	0.0001	5702	25	19.04	601.8		0.062	1	6.2	10.159	0.0001	1128.026	1.3574	24.6713	18.1748	1531.236	0.8077	0.5196
0.072	1	7.2	-0.23	116.4	0.0002	5702	25	19.04	610.2		0.072	1	7.2	10.157	0.0002	1128.932	1.3577	24.6853	18.1815	1532.768	0.8076	0.5119
0.082	1	8.2	-0.29	116	0.0001	5668	25	19.04	617.3		0.082	1	8.2	10.151	0.0001	1133.304	1.3662	24.7275	18.0991	1548.354	0.8027	0.5056
0.092	1	9.2	-0.3	105.92	0.0002	5696	25	19.04	619		0.092	1	9.2	10.15	0.0002	1276.89	1.36	24.7345	18.187	1736.582	0.8063	0.504
0.102	1	10.2	-0.53	105.91	0.0004	5617	25	19.04	620.5		0.102	1	10.2	10.127	0.0004	1274.157	1.3812	24.8971	18.0261	1759.831	0.794	0.5027
0.112	1	11.2	-0.63	105.82	0.001	5449	25	19.04	624.5		0.112	1	11.2	10.117	0.001	1274.342	1.4221	24.9683	17.5574	1812.233	0.7702	0.4992
0.122	1	12.2	-0.64	106.63	0.0008	5554	25	19.04	624.8		0.122	1	12.2	10.116	0.0008	1261.347	1.3973	24.9754	17.8736	1762.523	0.7846	0.499
0.132	1	13.2	-0.64	110.83	0.0007	5680	24	19.05	622.8		0.132	1	13.2	10.116	0.0007	1198.578	1.3682	23.9764	17.5238	1639.918	0.8015	0.5007
0.142	1	14.2	-0.75	110.37	0.0009	5701	23	19.05	620.1		0.142	1	14.2	10.105	0.0009	1203.836	1.3649	23.0497	16.8871	1643.151	0.8034	0.5031
0.152	1	15.2	-0.69	106.95	0.001	5746	24	19.05	620.4		0.152	1	15.2	10.111	0.001	1255.713	1.354	24.0107	17.7337	1700.181	0.8098	0.5028
0.162	1	16.2	-0.69	115.86	0.0008	5797	24	19.06	620		0.162	1	16.2	10.111	0.0008	1130.605	1.3426	24.0107	17.8843	1517.904	0.8164	0.5032
0.172	1	17.2	-0.73	106.17	0.0005	5883	23	19.05	619.7		0.172	1	17.2	10.107	0.0005	1267.494	1.3241	23.0365	17.3973	1678.342	0.8271	0.5034
0.182	1	18.2	-0.64	106.47	0.0005	5963	23	19.05	619.5		0.182	1	18.2	10.116	0.0005	1263.868	1.3057	22.9774	17.5983	1650.18	0.8378	0.5036
0.192	1	19.2	-0.7	115.81	0.0005	5730	23	19.06	621.7		0.192	1	19.2	10.11	0.0005	1131.125	1.3577	23.0168	16.9529	1535.721	0.8076	0.5017
0.202	1	20.2	-0.64	116.01	0.0004	5686	23	19.06	620.6		0.202	1	20.2	10.116	0.0004	1129.27	1.3669	22.9774	16.8104	1543.546	0.8023	0.5027
0.212	1	21.2	-0.64	120.17	0.0004	5691	23	19.07	621.4		0.212	1	21.2	10.116	0.0004	1079.155	1.3657	22.9774	16.8244	1473.819	0.8029	0.5019
0.222	1	22.2	-0.5	119.96	0.0002	5737	23	19.08	623.5		0.222	1	22.2	10.13	0.0002	1083.075	1.3534	22.8858	16.9094	1465.875	0.8101	0.5001
0.232	1	23.2	-0.48	115.57	0.0003	5531	23	19.07	624.7		0.232	1	23.2	10.132	0.0003	1136.639	1.4005	22.8727	16.3316	1591.889	0.7828	0.4991
0.242	1	24.2	-0.49	110.26	0.0004	5490	22	19.08	623.6		0.242	1	24.2	10.131	0.0004	1208.517	1.4103	21.8845	15.5171	1704.431	0.7771	0.5
0.252	1	25.2	-0.48	106.76	0.0007	5444	23	19.07	620.4		0.252	1	25.2	10.132	0.0007	1261.297	1.4212	22.8727	16.0941	1792.538	0.7708	0.5028
0.262	1	26.2	-0.46	107.02	0.0004	5465	22	19.08	617.9		0.262	1	26.2	10.134	0.0004	1257.476	1.4159	21.8658	15.4432	1780.438	0.7739	0.505
0.272	1	27.2	-0.43	115.88	0.0006	5430	23	19.08	617.3		0.272	1	27.2	10.137	0.0006	1133.259	1.4238	22.8401	16.0411	1613.588	0.7692	0.5055
0.282	1	28.2	-0.34	116.03	0.0007	5435	23	19.08	619.9		0.282	1	28.2	10.146	0.0007	1132.366	1.4214	22.7817	16.0278	1609.527	0.7707	0.5033
0.292	1	29.2	-0.35	115.95	0.0006	5447	23	19.08	623.6		0.292	1	29.2	10.145	0.0006	1133.266	1.4186	22.7882	16.0633	1607.705	0.7722	0.5
0.302	1	30.2	-0.34	116.26	0.0006	5394	23	19.08	620.8		0.302	1	30.2	10.146	0.0006	1129.467	1.4313	22.7817	15.9171	1616.575	0.7649	0.5025
0.312	1	31.2	-0.36	116.35	0.0004	5329	23	19.08	606.7		0.312	1	31.2	10.144	0.0004	1128.114	1.4474	22.7947	15.7484	1632.865	0.7556	0.515
0.322	1	32.2	-0.34	115.98	0.0005	5345	23	19.08	595.2		0.322	1	32.2	10.146	0.0005	1132.998	1.4432	22.7817	15.7854	1635.16	0.758	0.5257
0.332	1	33.2	-0.39	116.71	0.0005	5388	24	19.09	580.7		0.332	1	33.2	10.141	0.0005	1123.283	1.4334	23.8061	16.6077	1610.152	0.7637	0.5399
0.342	1	34.2	-0.43	111.68	0.0005	5431	23	19.09	567.4		0.342	1	34.2	10.137	0.0005	1189.091	1.4236	22.8401	16.0439	1692.798	0.7694	0.5536
0.352	1	35.2	-0.39	116.55	0.0003	5405	24	19.09	557		0.352	1	35.2	10.141	0.0003	1125.277	1.4293	23.8061	16.6556	1608.375	0.7661	0.5648
0.362	1	36.2	-0.33	120.14	0.0003	5357	24	19.09	550.3		0.362	1	36.2	10.147	0.0003	1082.809	1.4401	23.7654	16.5022	1559.391	0.7598	0.5722
0.372	1	37.2	-0.34	115.99	0.0003	5319	25	19.1	544.6		0.372	1	37.2	10.146	0.0003	1132.872	1.4496	24.7627	17.0824	1642.219	0.7543	0.5786
0.382	1	38.2	-0.34	115.86	0.0008	5058	24	19.09	536.2		0.382	1	38.2	10.146	0.0008	1134.519	1.516	23.7722	15.6805	1719.97	0.7158	0.5884
0.392	1	39.2	-0.39	116.63	0.0007	5051	24	19.1	529		0.392	1	39.2	10.141	0.0007	1124.279	1.5186	23.8061	15.6761	1707.358	0.7143	0.597
0.402	1	40.2	-0.33	119.95	0.0005	5211	24	19.1	522.3		0.402	1	40.2	10.147	0.0005	1085.009	1.4764	23.7654	16.0964	1601.952	0.7387	0.6052
0.412	1	41.2	-0.3	116.13	0.0004	5263	24	19.1	517.6		0.412	1	41.2	10.15	0.0004	1131.55	1.4629	23.7452	16.2312	1655.382	0.7466	0.6112
0.422	1	42.2	-0.21	116.05	0.0004	5329	24	19.1	512.7		0.422	1	42.2	10.159	0.0004	1133.564	1.4453	23.6845	16.3873	1638.331	0.7568	0.6175
0.432	1	43.2	-0.21	116.42	0.0005	5394	24	19.11	513.7		0.432	1	43.2	10.159	0.0005	1128.903	1.4294	23.6845	16.569	1613.7	0.766	0.6161
0.442	1	44.2	-0.16	116.5	0.0007	5363	24	19.1	511		0.442	1	44.2	10.164	0.0007	1128.456	1.4363	23.6508	16.4669	1620.76	0.762	0.6197
0.452	1	45.2	-0.12	116.54	0.0007	5232	24	19.12	509.2		0.452	1	45.2	10.168	0.0007	1128.399	1.4681	23.624	16.0915	1656.605	0.7436	0.622
0.462	1	46.2	-0.14	116.76	0.0006	5357	24	19.11	509.1		0.462	1	46.2	10.166	0.0006	1125.429	1.4374	23.6374	16.4441	1617.741	0.7613	0.6221
0.472	1	47.2	-0.1	116.81	0.0005	5361	24	19.11	510.7		0.472	1	47.2	10.17	0.0005	1125.249	1.4359	23.6106	16.443	1615.749	0.7622	0.62
0.482	1	48.2	-0.1	116.8	0.0007	5279	24	19.12	513.4		0.482	1	48.2	10.17	0.0007	1125.373	1.4561	23.6106	16.2152	1638.628	0.7505	0.6166
0.492	1	49.2	-0.02	116.98	0.0005	5331	24	19.12	515.6		0.492	1	49.2	10.178	0.0005	1124.02	1.4421	23.557	16.3352	1620.953	0.7586	0.6137
0.502	1	50.2	-0.19	116.63	0.0004	5410	25	19.13	519.6		0.502	1	50.2	10.161	0.0004	1126.497	1.4253	24.6573	17.2998	1605.59	0.7684	0.6086
0.512	1	51.2	-0.14	116.62	0.0004	5348	24	19.13	522.9		0.512	1	51.2	10.166	0.0004	1127.176	1.4396	23.6374	16.419	1622.73	0.7601	0.6044
0.522	1	52.2	-0.09	116.59	0.0005	5332	24	19.13	525.2		0.522	1	52.2	10.171	0.0005	1128.106	1.4429	23.6039	16.3592	1627.688	0.7582	0.6016
0.532	1	53.2	-0.04	116.41	0.0004	5348	24	19.13	526.5		0.532	1	53.2	10.176	0.0004	1130.918	1.4382	23.5704	16.3885	1626.517	0.7609	0.6001
0.542	1	54.2	-0.13	116.26	0.0008	5338	24	19.16	526		0.542	1	54.2	10.167	0.0008	1131.804	1.4419	23.6307	16.388	1632.003	0.7587	0.6006
0.552	1	55.2	-0.1	111.3	0.0006	5371	24	19.17	525.8		0.552	1	55.2	10.17	0.0006	1198.303	1.4335	23.6106	16.4709	1717.732	0.7636	0.6009
0.562	1	56.2	-0.15	111.02	0.0008	5379	23	19.16	523		0.562	1	56.2	10.165	0.0008	1201.679	1.4322	22.6589	15.8207	1721.082	0.7644	0.6044
0.572	1	57.2	-0.16	116.46	0.0006	5364	24	19.17	519.4		0.572	1	57.2	10.164	0.0006	1128.957	1.436	23.6508	16.4697	1621.205	0.7622	0.6089
0.582	1	58.2	-0.16	116.38	0.0008	5395	23	19.18	516.4		0.582	1	58.2	10.164	0.0008	1129.961	1.4285	22.6654	15.8666	1614.145	0.7665	0.6126
0.592	1	59.2	-0.26	116.27	0.0008	5345	23	19.17	514.8		0.592	1	59.2	10.154	0.0008	1130.232	1.4421	22.7299	15.7619	1629.882	0.7587	0.6148
0.602	1	60.2	-0.25	115.98	0.0012	5263	24	19.18	515.6		0.602	1	60.2	10.155	0.0012	1134.003	1.4622	23.7114	16.2161	1658.154	0.747	0.6137
0.612	1	61.2	-0.29	110.21	0.0012	5322	24	19.18	515.5		0.612	1	61.2	10.151	0.0012	1211.626	1.4482	23.7384	16.3922	1754.621	0.7551	0.6139
0.622	1	62.2	-0.27	107.13	0.0009	5298	24	19.18	518.3		0.622	1	62.2	10.153	0.0009	1258.116	1.4538	23.7249	16.3193	1829.045	0.7519	0.6103
0.632	1	63.2	-0.28	115.77	0.001	5200	24	19.18	519.4		0.632	1	63.2	10.152	0.001	1136.333	1.4785	23.7316	16.0512	1680.069	0.7375	0.6089
0.642	1	64.2	-0.3	107.82	0.0014	5240	24	19.18	518.9		0.642	1	64.2	10.15	0.0014	1247.082	1.4687	23.7452	16.1675	1831.583	0.7432	0.6095
0.652	1	65.2	-0.3	107.01	0.0012	5222	24	19.19	516.9		0.652	1	65.2	10.15	0.0012	1259.618	1.4732	23.7452	16.1178	1855.702	0.7406	0.612
0.662	1	66.2	-0.3	115.97	0.001	5246	24	19.19	513.4		0.662	1	66.2	10.15	0.001	1133.572	1.4672	23.7452	16.1841	1663.164	0.7441	0.6166
0.672	1	67.2	-0.3	107.19	0.0007	5189	24	19.19	510.5		0.672	1	67.2	10.15	0.0007	1256.81	1.4816	23.7452	16.0269	1862.071	0.7357	0.6203
0.682	1	68.2	-0.24	107.5	0.0006	5185	24	19.19	508.8		0.682	1	68.2	10.156	0.0006	1252.745	1.4817	23.7047	15.998	1856.225	0.7357	0.6225
0.692	1	69.2	-0.21	116.16	0.001	5237	24	19.2	506.9		0.692	1	69.2	10.159	0.001	1132.174	1.4681	23.6845	16.1322	1662.198	0.7435	0.6251
0.702	1	70.2	-0.2	116.26	0.0015	5152	24	19.2	506.6		0.702	1	70.2	10.16	0.0015	1131.025	1.4896	23.6777	15.8957	1684.74	0.7311	0.6255
0.712	1	71.2	-0.15	116.39	0.0015	5147	23	19.2	505.9		0.712	1	71.2	10.165	0.0015	1129.947	1.4901	22.6589	15.2061	1683.754	0.7308	0.6264
0.722	1	72.2	-0.15	116.51	0.0013	5124	23	19.2	502.1		0.722	1	72.2	10.165	0.0013	1128.441	1.496	22.6589	15.146	1688.188	0.7274	0.6315
0.732	1	73.2	-0.09	116.55	0.0013	5124	23	19.21	501.3		0.732	1	73.2	10.171	0.0013	1128.606	1.4952	22.6204	15.1291	1687.439	0.7279	0.6326
0.742	1	74.2	-0.07	111.05	0.0009	5217	23	19.21	482.9		0.742	1	74.2	10.173	0.0009	1202.198	1.4712	22.6076	15.3672	1768.62	0.7418	0.6586
0.752	1	75.2	0.01	110.98	0.0008	5111	23	19.22	476		0.752	1	75.2	10.181	0.0008	1204.14	1.497	22.5563	15.0673	1802.643	0.7268	0.669
0.762	1	76.2	0.03	110.74	0.0008	5084	23	19.21	476.2		0.762	1	76.2	10.183	0.0008	1207.805	1.5037	22.5435	14.9916	1816.227	0.7229	0.6686
0.772	1	77.2	0.11	116.78	0.0012	5199	22	19.22	474.5		0.772	1	77.2	10.191	0.0012	1127.947	1.4731	21.5145	14.605	1661.573	0.7407	0.6712
0.782	1	78.2	0.15	117.06	0.0011	5121	23	19.21	472.6		0.782	1	78.2	10.195	0.0011	1124.903	1.4924	22.467	15.0542	1678.811	0.7295	0.674
0.792	1	79.2	0.26	111.2	0.0011	5156	23	19.22	473.4		0.792	1	79.2	10.206	0.0011	1203.964	1.4818	22.3972	15.1145	1784.076	0.7356	0.6729
0.802	1	80.2	0.33	111.55	0.001	5218	22	19.22	475.1		0.802	1	80.2	10.213	0.001	1199.836	1.4651	21.3811	14.5932	1757.929	0.7453	0.6703
0.812	1	81.2	0.37	111.57	0.0009	5234	23	19.22	478.7		0.812	1	81.2	10.217	0.0009	1200.024	1.4606	22.3277	15.2871	1752.709	0.7479	0.6649
0.822	1	82.2	0.43	111.23	0.0008	5189	23	19.23	481.2		0.822	1	82.2	10.223	0.0008	1205.542	1.471	22.2899	15.1529	1773.359	0.7419	0.6611
0.832	1	83.2	0.84	111.62	0.0013	5246	22	19.22	484.1		0.832	1	83.2	10.264	0.0013	1204.836	1.4509	21.0761	14.5263	1748.089	0.7535	0.6568
0.842	1	84.2	0.89	111.71	0.0006	5214	22	19.23	486.8		0.842	1	84.2	10.269	0.0006	1204.151	1.4582	21.0465	14.4337	1755.834	0.7493	0.653
0.852	1	85.2	1.97	118.14	0.0002	5133	23	19.24	490.1		0.852	1	85.2	10.377	0.0002	1131.501	1.4632	21.35	14.5913	1655.613	0.7464	0.6482
0.862	1	86.2	2.61	118.45	0.0003	5100	23	19.23	490.7		0.862	1	86.2	10.441	0.0003	1134.645	1.4625	20.9757	14.342	1659.457	0.7468	0.6473
0.872	1	87.2	2.63	999	0	5128	23	19.23	490.5		0.872	1	87.2	10.443	0.00025	1135.0815	1.4552	20.9641	14.4063	156.2532	0.751	0.6476
0.882	1	88.2	3.19	118.89	0.0002	5038	23	19.23	481.6		0.882	1	88.2	10.499	0.0002	1135.518	1.4702	20.6443	14.0423	1669.386	0.7424	0.6605
0.892	1	89.2	3.48	129.64	0.0001	5119	24	19.24	466.2		0.892	1	89.2	10.528	0.0001	1020.056	1.4457	21.3719	14.7831	1474.694	0.7566	0.684
0.902	1	90.2	3.17	119.19	0.0001	5117	23	19.24	434.1		0.902	1	90.2	10.497	0.0001	1131.63	1.4505	20.6556	14.2407	1641.394	0.7538	0.7387
0.912	1	91.2	2.89	109.34	0.0001	5043	23	19.24	371.6		0.912	1	91.2	10.469	0.0001	1262.695	1.4731	20.8148	14.13	1860.06	0.7407	0.8733
0.922	1	92.2	3.15	999	0	5063	23	19.24	283.5		0.922	1	92.2	10.495	0	107.91	1.4644	20.6669	14.1134	158.0182	0.7457	1.169
0.932	1	93.2	4.77	999	0	5196	23	19.25	205.6		0.932	1	93.2	10.657	0	109.5757	1.4094	19.7783	14.0331	154.4365	0.7776	1.6527
0.942	2	0.09	5.71	999	0	7384	22	19.24	178.3		0.942	2	0.1	10.751	0	110.5422	0.9776	18.4486	18.872	108.062	1.0281	1.9274
0.952	2	1.09	6.05	999	0	5472	22	19.24	206.3		0.952	2	1.1	10.785	0	110.8918	1.3288	18.2827	13.7583	147.3583	0.8243	1.6466
0.962	2	2.09	6.24	999	0	4966	22	19.25	272.3		0.962	2	2.1	10.804	0	111.0871	1.4467	18.191	12.5744	160.706	0.756	1.2209
0.972	2	3.09	5.94	999	0	4970	22	19.24	345.9		0.972	2	3.1	10.774	0	110.7787	1.4497	18.3362	12.6484	160.5938	0.7542	0.9434
0.982	2	4.09	5.45	999	0	5006	23	19.25	400.3		0.982	2	4.1	10.725	0	110.2748	1.4472	19.4213	13.4199	159.5897	0.7557	0.8062
0.992	2	5.09	1.73	999	0	5072	22	19.25	434.9		0.992	2	5.1	10.353	0	106.4499	1.4821	20.5583	13.8708	157.7721	0.7354	0.7373
1.002	2	6.09	0.29	130.81	0.0001	5126	22	19.24	459		1.002	2	6.1	10.209	0.0001	978.0609	1.4891	21.4053	14.3749	1456.405	0.7314	0.6956
1.012	2	7.09	-0.24	155.1	0	5080	22	19.25	472.5		1.012	2	7.1	10.156	0.0001	940.49195	1.5088	21.7293	14.4018	1190.892	0.72	0.6742
1.022	2	8.09	-0.79	138.3	0.0001	5183	22	19.25	480		1.022	2	8.1	10.101	0.0001	902.923	1.4903	22.0728	14.8109	1345.632	0.7307	0.6629
1.032	2	9.09	-0.8	130.46	0.0001	5106	22	19.24	484.8		1.032	2	9.1	10.1	0.0001	970.8737	1.5103	22.0791	14.6186	1466.356	0.7191	0.6558
1.042	2	10.09	-0.8	120.53	0.0001	5154	22	19.24	488.1		1.042	2	10.1	10.1	0.0001	1073.326	1.4979	22.0791	14.74	1607.738	0.7263	0.6511
1.052	2	11.09	-0.8	119.75	0.0001	5047	22	19.25	488.3		1.052	2	11.1	10.1	0.0001	1082.297	1.5258	22.0791	14.4701	1651.42	0.7101	0.6507
1.062	2	12.09	-0.83	119.53	0.0001	5014	21	19.24	488.2		1.062	2	12.1	10.097	0.0001	1084.533	1.5351	21.0936	13.7411	1664.837	0.7047	0.6509
1.072	2	13.09	-0.85	120.09	0.0001	5064	21	19.24	488.8		1.072	2	13.1	10.095	0.0001	1077.835	1.5221	21.1057	13.8661	1640.584	0.7122	0.65
1.082	2	14.09	-0.85	121.5	0.0001	4983	21	19.25	488.2		1.082	2	14.1	10.095	0.0001	1061.849	1.5437	21.1057	13.6723	1639.161	0.6997	0.651
1.092	2	15.09	-0.85	143.98	0.0001	5034	22	19.26	488.8		1.092	2	15.1	10.095	0.0001	858.7836	1.5301	22.1107	14.451	1313.982	0.7076	0.6501
1.102	2	16.09	-0.8	130.71	0.0001	5026	22	19.25	487.7		1.102	2	16.1	10.1	0.0001	968.5461	1.5314	22.0791	14.4174	1483.25	0.7068	0.6516
1.112	2	17.09	-0.75	119.16	0.0001	5076	22	19.25	489.6		1.112	2	17.1	10.105	0.0001	1089.723	1.5174	22.0476	14.5294	1653.599	0.7149	0.649
1.122	2	18.09	-0.74	119.46	0.0002	5054	22	19.25	489.4		1.122	2	18.1	10.106	0.0002	1086.316	1.5231	22.0413	14.4714	1654.559	0.7117	0.6492
1.132	2	19.09	-0.68	121.36	0.0001	5049	21	19.25	488.9		1.132	2	19.1	10.112	0.0001	1065.206	1.5235	21.0033	13.7862	1622.85	0.7114	0.65
1.142	2	20.09	-0.65	121.35	0.0001	5054	22	19.25	488.1		1.142	2	20.1	10.115	0.0001	1065.634	1.5217	21.9846	14.4471	1621.614	0.7125	0.6511
1.152	2	21.09	-0.54	131.36	0.0001	4991	22	19.25	488.9		1.152	2	21.1	10.126	0.0001	965.0242	1.5368	21.9157	14.2605	1483.064	0.7037	0.6499
1.162	2	22.09	-0.58	131.16	0.0001	4924	22	19.25	488.4		1.162	2	22.1	10.122	0.0001	966.4852	1.5555	21.9407	14.1051	1503.387	0.6929	0.6507
1.172	2	23.09	-0.53	119.4	0.0001	4852	22	19.25	489.5		1.172	2	23.1	10.127	0.0001	1089.276	1.5745	21.9095	13.9148	1715.109	0.6818	0.649
1.182	2	24.09	-0.45	124.35	0.0001	4826	22	19.25	486.1		1.182	2	24.1	10.135	0.0001	1035.029	1.5805	21.8596	13.8305	1635.893	0.6783	0.6539
1.192	2	25.09	-0.45	143.39	0.0001	4845	22	19.25	487.6		1.192	2	25.1	10.135	0.0001	866.5356	1.5752	21.8596	13.877	1365.001	0.6814	0.6517
1.202	2	26.09	-0.39	128.2	0.0001	4893	23	19.25	489.4		1.202	2	26.1	10.141	0.0001	996.4626	1.5611	22.8141	14.6144	1555.547	0.6896	0.6492
1.212	2	27.09	-0.35	122.21	0.0001	4909	22	19.26	487.4		1.212	2	27.1	10.145	0.0001	1059.198	1.5561	21.7974	14.0079	1648.195	0.6925	0.652
1.222	2	28.09	-0.35	128.08	0.0001	4945	23	19.26	485.7		1.222	2	28.1	10.145	0.0001	998.0324	1.5463	22.7882	14.7372	1543.259	0.6982	0.6545
1.232	2	29.09	-0.31	119.79	0.0001	4877	23	19.25	482.7		1.232	2	29.1	10.149	0.0001	1087.082	1.5642	22.7622	14.5517	1700.446	0.6878	0.659
1.242	2	30.09	-0.29	120.99	0.0001	4832	23	19.26	479.1		1.242	2	30.1	10.151	0.0001	1073.498	1.5764	22.7493	14.4315	1692.227	0.6808	0.6643
1.252	2	31.09	-0.29	121.28	0.0001	4780	23	19.25	477.9		1.252	2	31.1	10.151	0.0001	1070.216	1.5909	22.7493	14.2993	1702.643	0.6723	0.666
1.262	2	32.09	-0.29	123.22	0.0001	4793	24	19.26	470.7		1.262	2	32.1	10.151	0.0001	1048.765	1.5873	23.7384	14.9555	1664.677	0.6744	0.677
1.272	2	33.09	-0.34	123.54	0.0001	4865	23	19.26	468.8		1.272	2	33.1	10.146	0.0001	1044.795	1.568	22.7817	14.5292	1638.236	0.6856	0.6799
1.282	2	34.09	-0.27	123.71	0.0001	4828	23	19.27	468.5		1.282	2	34.1	10.153	0.0001	1043.688	1.5772	22.7364	14.4159	1646.074	0.6803	0.6805
1.292	2	35.09	-0.28	123.38	0.0001	4761	24	19.29	467.2		1.292	2	35.1	10.152	0.0001	1047.138	1.5961	23.7316	14.8681	1671.387	0.6693	0.6824
1.302	2	36.09	-0.3	123.39	0.0001	4643	23	19.29	464		1.302	2	36.1	10.15	0.0001	1046.823	1.6305	22.7558	13.9567	1706.797	0.6494	0.6876
1.312	2	37.09	-0.24	120.11	0.0001	4688	23	19.3	458.7		1.312	2	37.1	10.156	0.0001	1084.116	1.6164	22.717	14.054	1752.373	0.6575	0.6962
1.322	2	38.09	-0.29	118.73	0.0002	4913	22	19.3	454.7		1.322	2	38.1	10.151	0.0002	1099.783	1.5541	21.7602	14.0021	1709.139	0.6937	0.7028
1.332	2	39.09	-0.23	122.66	0.0001	4938	22	19.31	452		1.332	2	39.1	10.157	0.0001	1055.492	1.5464	21.7231	14.0478	1632.177	0.6982	0.7072
1.342	2	40.09	-0.28	123.29	0.0001	4917	23	19.31	451.9		1.342	2	40.1	10.152	0.0001	1048.111	1.5528	22.7428	14.6461	1627.534	0.6944	0.7074
1.352	2	41.09	-0.23	124.32	0.0002	4835	22	19.31	452.7		1.352	2	41.1	10.157	0.0002	1037.593	1.5746	21.7231	13.7959	1633.797	0.6818	0.706
1.362	2	42.09	-0.34	123.98	0.0001	4851	22	19.32	451.9		1.362	2	42.1	10.146	0.0001	1040.082	1.5719	21.7912	13.8632	1634.872	0.6834	0.7074
1.372	2	43.09	-0.33	123.79	0.0001	4916	23	19.31	450		1.372	2	43.1	10.147	0.0001	1042.214	1.5539	22.7752	14.6571	1619.459	0.6938	0.7107
1.382	2	44.09	-0.39	124.25	0.0001	4789	23	19.31	449.7		1.382	2	44.1	10.141	0.0001	1036.7	1.59	22.8141	14.3488	1648.316	0.6729	0.7112
1.392	2	45.09	-0.39	125.25	0.0001	4896	23	19.32	447.5		1.392	2	45.1	10.141	0.0001	1026.209	1.5602	22.8141	14.6221	1601.14	0.6901	0.7149
1.402	2	46.09	-0.39	125.13	0.0002	4899	23	19.32	447.7		1.402	2	46.1	10.141	0.0002	1027.457	1.5594	22.8141	14.6298	1602.242	0.6906	0.7146
1.412	2	47.09	-0.39	124.99	0.0001	4903	24	19.32	447.8		1.412	2	47.1	10.141	0.0001	1028.916	1.5583	23.8061	15.2766	1603.393	0.6912	0.7143
1.422	2	48.09	-0.39	124.94	0.0002	4959	24	19.33	449.1		1.422	2	48.1	10.141	0.0002	1029.439	1.5431	23.8061	15.4271	1588.559	0.7	0.7122
1.432	2	49.09	-0.33	124.52	0.0001	4964	24	19.32	450.6		1.432	2	49.1	10.147	0.0001	1034.458	1.5409	23.7654	15.4234	1593.969	0.7013	0.7097
1.442	2	50.09	-0.29	121.79	0.0001	4996	24	19.33	454.3		1.442	2	50.1	10.151	0.0001	1064.492	1.5317	23.7384	15.4981	1630.479	0.7067	0.7034
