Geotek MSCL 7.9 - TN336_JPC10_10.raw created at 21:53:15 on 1/20/2016.											Geotek MSCL 7.9 - TN336_JPC10_10.out created at 21:56:07 on 1/20/2016.											
																						
																						
Core Depth	Section	Sect Depth	CTD 	Tr. Time 	PW Amp   	A Gamma  	Mag Sus  	Temp     	NC Res   		SB DEPTH	SECT NUM	SECT DEPTH	CT	PWAmp	PWVel	Den1	MS1	MS1	Imp	FP	RES
m		cm	mm	µsec		cps	SI x 10^-5	°C	mV		m		cm	cm		m/s	g/cc	SI x 10^-5	x 10^-8 (m^3/kg)			Ohm.m
																						
0.001	1	0.1	7.25	999	0	6893	9	20.92	266.5		0.001	1	0.1	10.905	0	112.1614	1.0572	7.2466	6.8547	118.5734	0.9819	1.2114
0.011	1	1.1	7.43	999	0	4988	12	20.93	300.9		0.011	1	1.1	10.923	0	112.3465	1.4383	9.6168	6.6862	161.5893	0.7608	1.0554
0.021	1	2.1	6.99	101.84	0.0001	4911	13	20.93	359.8		0.021	1	2.1	10.879	0.0001	1448.602	1.4634	10.5389	7.2017	2119.868	0.7463	0.8616
0.031	1	3.1	6.45	97.26	0.0003	4839	14	20.93	418.5		0.031	1	3.1	10.825	0.0003	1535.025	1.4891	11.512	7.7307	2285.862	0.7314	0.7258
0.041	1	4.1	5.8	999	0	4878	14	20.93	457		0.041	1	4.1	10.76	0	110.67	1.488	11.7119	7.8707	164.681	0.732	0.6568
0.051	1	5.1	1.09	93.5	0.0012	4697	14	20.93	477.6		0.051	1	5.1	10.289	0.0012	1541.192	1.6061	13.3184	8.2925	2475.274	0.6635	0.6246
0.061	1	6.1	0.12	94.02	0.0026	4702	15	20.93	486.2		0.061	1	6.1	10.192	0.0026	1514.863	1.6199	14.6649	9.0527	2453.985	0.6555	0.6121
0.071	1	7.1	0.25	98.51	0.0012	4299	14	20.93	486.5		0.071	1	7.1	10.205	0.0012	1421.903	1.7392	13.6369	7.8411	2472.909	0.5863	0.6118
0.081	1	8.1	0.22	97.54	0.0003	4166	14	20.93	478.3		0.081	1	8.1	10.202	0.0003	1440.96	1.7829	13.6485	7.6551	2569.117	0.561	0.6236
0.091	1	9.1	0.21	97.97	0.0004	4178	14	20.94	466.8		0.091	1	9.1	10.201	0.0004	1432.121	1.7791	13.6524	7.6737	2547.915	0.5632	0.6411
0.101	1	10.1	0.18	92.66	0.0006	4350	13	20.94	459.5		0.101	1	10.1	10.198	0.0006	1547.027	1.7242	12.688	7.3587	2667.393	0.595	0.6527
0.111	1	11.1	0.14	93.32	0.001	4424	12	20.94	453.7		0.111	1	11.1	10.194	0.001	1531.09	1.7019	11.7252	6.8896	2605.726	0.608	0.6621
0.121	1	12.1	0.13	93.24	0.001	4293	11	20.94	456.2		0.121	1	12.1	10.193	0.001	1532.782	1.7431	10.7512	6.1678	2671.82	0.584	0.658
0.131	1	13.1	0.15	92.97	0.0013	4324	11	20.94	453.6		0.131	1	13.1	10.195	0.0013	1539.333	1.7329	10.7451	6.2006	2667.532	0.59	0.6623
0.141	1	14.1	0.12	93.19	0.0024	4324	10	20.94	453.9		0.141	1	14.1	10.192	0.0024	1533.785	1.7334	9.7766	5.64	2658.701	0.5897	0.6619
0.151	1	15.1	0.15	93.25	0.0026	4284	10	20.93	457.9		0.151	1	15.1	10.195	0.0026	1532.852	1.7457	9.7683	5.5958	2675.832	0.5826	0.6552
0.161	1	16.1	0.14	93.18	0.0018	4302	10	20.93	459.8		0.161	1	16.1	10.194	0.0018	1534.317	1.7401	9.771	5.6153	2669.825	0.5858	0.6522
0.171	1	17.1	0.07	92.76	0.0006	4216	9	20.93	462.9		0.171	1	17.1	10.187	0.0006	1543.017	1.7691	8.8114	4.9808	2729.683	0.569	0.6473
0.181	1	18.1	0.14	96.69	0.0003	4212	10	20.93	467.5		0.181	1	18.1	10.194	0.0003	1457.327	1.7692	9.771	5.523	2578.229	0.5689	0.6401
0.191	1	19.1	0.13	91.99	0.0008	4248	9	20.94	471.4		0.191	1	19.1	10.193	0.0008	1562.146	1.7576	8.7964	5.0048	2745.624	0.5756	0.634
0.201	1	20.1	0.07	92.13	0.0012	4263	9	20.94	477.1		0.201	1	20.1	10.187	0.0012	1557.884	1.7538	8.8114	5.0242	2732.188	0.5779	0.6255
0.211	1	21.1	0.07	92.57	0.0025	4330	10	20.94	480.6		0.211	1	21.1	10.187	0.0025	1547.471	1.7324	9.7904	5.6514	2680.802	0.5903	0.6203
0.221	1	22.1	0.08	92.61	0.0019	4345	10	20.93	487.5		0.221	1	22.1	10.188	0.0019	1546.683	1.7275	9.7877	5.6659	2671.851	0.5931	0.6102
0.231	1	23.1	0.05	93.06	0.002	4319	9	20.92	492.8		0.231	1	23.1	10.185	0.002	1535.736	1.7362	8.8164	5.078	2666.348	0.588	0.6028
0.241	1	24.1	0.02	93.36	0.0032	4526	9	20.93	497.4		0.241	1	24.1	10.182	0.0032	1528.37	1.6729	8.8239	5.2745	2556.845	0.6248	0.5965
0.251	1	25.1	0.02	93.7	0.0042	4487	9	20.93	503		0.251	1	25.1	10.182	0.0042	1520.609	1.6847	8.8239	5.2378	2561.702	0.6179	0.589
0.261	1	26.1	0.03	93.89	0.0041	4480	9	20.92	508.9		0.261	1	26.1	10.183	0.0041	1516.456	1.6866	8.8214	5.2302	2557.667	0.6168	0.5813
0.271	1	27.1	0.07	93.88	0.0034	4512	9	20.92	515.3		0.271	1	27.1	10.187	0.0034	1517.277	1.6763	8.8114	5.2565	2543.407	0.6228	0.5731
0.281	1	28.1	0.12	93.77	0.0047	4352	9	20.92	520.5		0.281	1	28.1	10.192	0.0047	1520.513	1.7246	8.7989	5.102	2622.266	0.5948	0.5665
0.291	1	29.1	0.17	93.57	0.0058	4314	10	20.92	528.9		0.291	1	29.1	10.197	0.0058	1525.812	1.7357	9.7627	5.6245	2648.421	0.5883	0.5564
0.301	1	30.1	0.23	93.7	0.0057	4274	10	20.93	529.4		0.301	1	30.1	10.203	0.0057	1523.746	1.7475	9.7462	5.5772	2662.735	0.5815	0.5557
0.311	1	31.1	0.23	93.96	0.0057	4363	10	20.93	499.5		0.311	1	31.1	10.203	0.0057	1517.852	1.7193	9.7462	5.6687	2609.624	0.5979	0.5936
0.321	1	32.1	0.33	94.25	0.0084	4352	10	20.92	491.6		0.321	1	32.1	10.213	0.0084	1512.813	1.721	9.7187	5.647	2603.622	0.5968	0.6045
0.331	1	33.1	0.31	94.25	0.0083	4376	10	20.92	487.4		0.331	1	33.1	10.211	0.0083	1512.517	1.7139	9.7242	5.6738	2592.28	0.601	0.6104
0.341	1	34.1	0.38	94.32	0.0128	4399	10	20.92	483.5		0.341	1	34.1	10.218	0.0128	1511.986	1.7056	9.705	5.6901	2578.81	0.6058	0.616
0.351	1	35.1	0.43	94.51	0.0134	4443	10	20.93	480.1		0.351	1	35.1	10.223	0.0134	1508.484	1.6912	9.6913	5.7303	2551.204	0.6141	0.621
0.361	1	36.1	0.48	94.51	0.0131	4410	10	20.93	480.2		0.361	1	36.1	10.228	0.0131	1509.222	1.7005	9.6776	5.691	2566.462	0.6087	0.6208
0.371	1	37.1	0.57	94.45	0.0115	4409	10	20.92	478		0.371	1	37.1	10.237	0.0115	1511.889	1.6993	9.6531	5.6805	2569.201	0.6094	0.6241
0.381	1	38.1	0.58	94.32	0.0116	4292	11	20.92	474.4		0.381	1	38.1	10.238	0.0116	1514.945	1.7358	10.6154	6.1157	2629.603	0.5883	0.6294
0.391	1	39.1	0.57	94.43	0.0125	4337	10	20.92	475.6		0.391	1	39.1	10.237	0.0125	1512.336	1.7217	9.6531	5.6067	2603.809	0.5965	0.6276
0.401	1	40.1	0.68	94.57	0.0104	4251	11	20.92	471.7		0.401	1	40.1	10.248	0.0104	1510.836	1.7472	10.5856	6.0586	2639.73	0.5817	0.6335
0.411	1	41.1	0.53	94.58	0.0081	4272	10	20.93	455		0.411	1	41.1	10.233	0.0081	1508.402	1.743	9.664	5.5444	2629.161	0.5841	0.66
0.421	1	42.1	0.57	94.58	0.0074	4340	11	20.92	453.8		0.421	1	42.1	10.237	0.0074	1508.992	1.7208	10.6184	6.1707	2596.63	0.597	0.6621
0.431	1	43.1	0.58	94.67	0.0076	4331	10	20.93	457.3		0.431	1	43.1	10.238	0.0076	1507.14	1.7234	9.6504	5.5995	2597.452	0.5955	0.6562
0.441	1	44.1	0.51	94.57	0.0058	4379	10	20.92	456.2		0.441	1	44.1	10.231	0.0058	1508.33	1.7096	9.6694	5.656	2578.644	0.6035	0.6581
0.451	1	45.1	0.37	94.43	0.0046	4382	10	20.92	455.7		0.451	1	45.1	10.217	0.0046	1509.381	1.711	9.7077	5.6737	2582.57	0.6027	0.6588
0.461	1	46.1	0.27	94.57	0.0048	4431	10	20.92	453		0.461	1	46.1	10.207	0.0048	1504.791	1.6976	9.7352	5.7348	2554.474	0.6105	0.6634
0.471	1	47.1	0.17	94.53	0.0049	4419	10	20.92	453.6		0.471	1	47.1	10.197	0.0049	1504.204	1.7029	9.7627	5.733	2561.531	0.6074	0.6624
0.481	1	48.1	0.07	94.53	0.0042	4331	9	20.92	454.3		0.481	1	48.1	10.187	0.0042	1502.729	1.7321	8.8114	5.0872	2602.817	0.5905	0.6612
0.491	1	49.1	0.33	94.49	0.0022	4390	10	20.93	456.9		0.491	1	49.1	10.213	0.0022	1507.454	1.7092	9.7187	5.6861	2576.54	0.6037	0.6569
0.501	1	50.1	0.54	94.14	0.0021	4345	9	20.93	458.7		0.501	1	50.1	10.234	0.0021	1518.398	1.7197	8.6951	5.0562	2611.2	0.5976	0.654
0.511	1	51.1	0.7	93.7	0.0113	4304	9	20.93	463.1		0.511	1	51.1	10.25	0.0113	1530.765	1.7299	8.656	5.0037	2648.122	0.5917	0.647
0.521	1	52.1	2.79	95.23	0.0077	4415	10	20.93	464.6		0.521	1	52.1	10.459	0.0077	1527.084	1.6615	9.0748	5.462	2537.185	0.6314	0.6445
0.531	1	53.1	3.1	95.36	0.0031	4463	9	20.93	465.2		0.531	1	53.1	10.49	0.0031	1528.709	1.6423	8.0981	4.9311	2510.539	0.6425	0.6436
0.541	1	54.1	3.43	95.43	0.0003	4362	9	20.93	459.6		0.541	1	54.1	10.523	0.0003	1531.955	1.6673	8.0254	4.8134	2554.241	0.628	0.6524
0.551	1	55.1	3.55	95.62	0.0033	4400	9	20.92	450.4		0.551	1	55.1	10.535	0.0033	1529.471	1.654	7.9992	4.8364	2529.68	0.6358	0.6677
0.561	1	56.1	3.67	95.28	0.0026	4396	9	20.93	431.2		0.561	1	56.1	10.547	0.0026	1538.809	1.6533	7.9731	4.8226	2544.073	0.6362	0.7016
0.571	1	57.1	3.64	95.68	0.004	4364	8	20.93	399		0.571	1	57.1	10.544	0.004	1529.446	1.6634	7.093	4.2642	2544.052	0.6303	0.7661
0.581	1	58.1	3.55	95.83	0.0027	4529	8	20.92	340.5		0.581	1	58.1	10.535	0.0027	1524.823	1.616	7.1104	4.4	2464.115	0.6578	0.9173
0.591	1	59.1	2.91	95.79	0.0069	4455	8	20.93	265.4		0.591	1	59.1	10.471	0.0069	1516.437	1.6476	7.2359	4.3918	2498.502	0.6394	1.217
0.601	1	60.1	6.23	999	0	4431	7	20.94	203		0.601	1	60.1	10.803	0	111.1123	1.6039	5.7896	3.6097	178.2137	0.6648	1.6502
0.611	1	61.1	6.27	999	0	6438	6	20.94	177.2		0.611	1	61.1	10.807	0	111.1534	1.1461	4.9572	4.3255	127.3876	0.9304	1.926
0.621	2	0.91	5.86	999	0	13709	6	20.93	178.4		0.621	2	0.9	10.766	0	110.7317	0.3276	5.0114	15.2977	36.2748	1.4051	1.9103
0.631	2	1.91	5.64	999	0	11472	6	20.93	193		0.631	2	1.9	10.744	0	110.5054	0.5121	5.0408	9.8426	56.5946	1.2981	1.7473
0.641	2	2.91	5.21	999	0	4539	7	20.93	221.6		0.641	2	2.9	10.701	0	110.0632	1.5881	5.9488	3.7459	174.7904	0.674	1.4938
0.651	2	3.91	4.46	999	0	4559	7	20.93	270.2		0.651	2	3.9	10.626	0	109.2917	1.5936	6.0699	3.8089	174.1678	0.6708	1.1926
0.661	2	4.91	1.78	999	0	4571	8	20.93	329.7		0.661	2	4.9	10.358	0	106.5353	1.6313	7.4654	4.5762	173.7959	0.6489	0.9514
0.671	2	5.91	0.54	132.41	0.0001	4610	8	20.93	382.2		0.671	2	5.9	10.234	0.0001	968.4868	1.6397	7.729	4.7136	1588.038	0.644	0.8044
0.681	2	6.91	0.17	999	0	4487	9	20.93	418.8		0.681	2	6.9	10.197	0	104.8793	1.6822	8.7865	5.2233	176.4256	0.6194	0.7252
0.691	2	7.91	-0.26	999	0	4681	9	20.93	442.8		0.691	2	7.9	10.154	0	104.4371	1.632	8.8943	5.4499	170.4434	0.6485	0.6806
0.701	2	8.91	-0.43	999	0	4666	9	20.93	458		0.701	2	8.9	10.137	0	104.2622	1.6391	8.9374	5.4527	170.8947	0.6444	0.6551
0.711	2	9.91	-0.42	128.29	0.0001	4439	9	20.93	466.9		0.711	2	9.9	10.138	0.0001	998.326	1.7066	8.9349	5.2354	1703.791	0.6052	0.641
0.721	2	10.91	-0.51	139.69	0.0001	4355	10	20.93	475		0.721	2	10.9	10.129	0.0001	896.7684	1.7344	9.9532	5.7388	1555.33	0.5891	0.6285
0.731	2	11.91	-0.57	999	0	4564	9	20.93	480.7		0.731	2	11.9	10.123	0	104.1182	1.6713	8.9732	5.369	174.0127	0.6257	0.62
0.741	2	12.91	-0.53	152.23	0	4544	10	20.92	484.2		0.741	2	12.9	10.127	0	806.9966	1.6766	9.9588	5.9399	1353.017	0.6226	0.615
0.751	2	13.91	-0.59	155.38	0.0001	4499	10	20.93	484.6		0.751	2	13.9	10.121	0.0001	786.7693	1.6912	9.9759	5.8988	1330.555	0.6142	0.6145
0.761	2	14.91	-0.59	155.24	0.0001	4436	10	20.92	484.2		0.761	2	14.9	10.121	0.0001	787.6265	1.7104	9.9759	5.8324	1347.188	0.603	0.615
0.771	2	15.91	-0.54	153.06	0.0001	4408	10	20.92	484.3		0.771	2	15.9	10.126	0.0001	801.6149	1.7183	9.9617	5.7975	1377.392	0.5985	0.6149
0.781	2	16.91	-0.53	147.49	0.0001	4416	10	20.93	484.1		0.781	2	16.9	10.127	0.0001	838.6749	1.7156	9.9588	5.8048	1438.844	0.6	0.6151
0.791	2	17.91	-0.44	131.49	0.0001	4497	10	20.93	487.3		0.791	2	17.9	10.136	0.0001	967.6371	1.6893	9.9333	5.8803	1634.597	0.6153	0.6106
0.801	2	18.91	-0.44	120.23	0.0001	4538	10	20.93	492.9		0.801	2	18.9	10.136	0.0001	1084.18	1.6769	9.9333	5.9236	1818.078	0.6224	0.6026
0.811	2	19.91	-0.37	131.75	0.0001	4572	10	20.93	493.6		0.811	2	19.9	10.143	0.0001	965.908	1.6656	9.9135	5.9518	1608.845	0.629	0.6017
0.821	2	20.91	-0.35	127.93	0.0001	4530	10	20.93	495.4		0.821	2	20.9	10.145	0.0001	1002.569	1.6778	9.9079	5.9052	1682.135	0.6219	0.5993
0.831	2	21.91	-0.24	127.94	0.0001	4450	10	20.92	495.2		0.831	2	21.9	10.156	0.0001	1003.557	1.7002	9.8769	5.8091	1706.295	0.6089	0.5995
0.841	2	22.91	-0.24	120.2	0.0001	4444	11	20.93	495.9		0.841	2	22.9	10.156	0.0001	1086.668	1.7021	10.8646	6.3831	1849.604	0.6078	0.5985
0.851	2	23.91	-0.24	120.63	0.0001	4448	10	20.93	498.4		0.851	2	23.9	10.156	0.0001	1081.691	1.7009	9.8769	5.807	1839.805	0.6086	0.5952
0.861	2	24.91	-0.18	120.18	0.0001	4391	11	20.93	498.7		0.861	2	24.9	10.162	0.0001	1087.543	1.7175	10.8461	6.3152	1867.818	0.5989	0.5947
0.871	2	25.91	-0.13	120.15	0.0002	4332	11	20.93	501.6		0.871	2	25.9	10.167	0.0002	1088.427	1.7352	10.8307	6.242	1888.585	0.5887	0.5909
0.881	2	26.91	-0.19	120.6	0.0001	4450	10	20.92	501.5		0.881	2	26.9	10.161	0.0001	1082.57	1.6994	9.8629	5.8037	1839.73	0.6094	0.591
0.891	2	27.91	-0.17	120.74	0.0001	4452	11	20.93	503.2		0.891	2	27.9	10.163	0.0001	1081.17	1.6985	10.843	6.384	1836.328	0.6099	0.5886
0.901	2	28.91	-0.14	120.49	0.0001	4374	11	20.93	505		0.901	2	28.9	10.166	0.0001	1084.373	1.7221	10.8338	6.2911	1867.396	0.5962	0.5863
0.911	2	29.91	-0.08	116.24	0.0003	4325	10	20.93	506		0.911	2	29.9	10.172	0.0003	1136.536	1.7365	9.8322	5.662	1973.614	0.5879	0.585
0.921	2	30.91	-0.06	120.43	0.0002	4541	10	20.92	502		0.921	2	30.9	10.174	0.0002	1085.922	1.6698	9.8266	5.885	1813.225	0.6266	0.5903
0.931	2	31.91	-0.04	120.49	0.0001	4502	10	20.92	497.9		0.931	2	31.9	10.176	0.0001	1085.44	1.6811	9.821	5.8419	1824.753	0.62	0.5958
0.941	2	32.91	-0.03	120.66	0.0001	4338	10	20.92	495		0.941	2	32.9	10.177	0.0001	1083.582	1.7315	9.8182	5.6702	1876.274	0.5907	0.5998
0.951	2	33.91	-0.04	120.32	0.0001	4503	10	20.92	493.3		0.951	2	33.9	10.176	0.0001	1087.412	1.6808	9.821	5.843	1827.74	0.6202	0.6021
0.961	2	34.91	-0.03	120.56	0.0002	4442	10	20.92	488.5		0.961	2	34.9	10.177	0.0002	1084.737	1.6992	9.8182	5.7782	1843.171	0.6095	0.6089
0.971	2	35.91	-0.04	120.64	0.0001	4460	10	20.93	489.5		0.971	2	35.9	10.176	0.0001	1083.706	1.6939	9.821	5.798	1835.636	0.6126	0.6075
0.981	2	36.91	-0.03	120.53	0.0001	4448	11	20.92	483.2		0.981	2	36.9	10.177	0.0001	1085.084	1.6974	10.8	6.3629	1841.767	0.6106	0.6164
0.991	2	37.91	-0.08	120.41	0.0001	4429	10	20.92	480.1		0.991	2	37.9	10.172	0.0001	1085.94	1.704	9.8322	5.77	1850.46	0.6067	0.6209
1.001	2	38.91	-0.03	120.2	0.0002	4455	10	20.92	473.3		1.001	2	38.9	10.177	0.0002	1088.915	1.6952	9.8182	5.7917	1845.94	0.6118	0.6311
1.011	2	39.91	-0.08	120.25	0.0001	4507	11	20.92	468.6		1.011	2	39.9	10.172	0.0001	1087.798	1.6803	10.8154	6.4367	1827.797	0.6205	0.6383
1.021	2	40.91	-0.08	120.53	0.0002	4525	10	20.92	469.3		1.021	2	40.9	10.172	0.0002	1084.551	1.6749	9.8322	5.8704	1816.478	0.6236	0.6372
1.031	2	41.91	-0.14	120.94	0.0001	4498	10	20.92	467.9		1.031	2	41.9	10.166	0.0001	1079.193	1.684	9.8489	5.8486	1817.339	0.6183	0.6393
1.041	2	42.91	-0.08	121.97	0.0001	4506	10	20.92	467		1.041	2	42.9	10.172	0.0001	1068.151	1.6806	9.8322	5.8505	1795.106	0.6203	0.6408
1.051	2	43.91	-0.19	123.14	0.0001	4559	10	20.93	466.8		1.051	2	43.9	10.161	0.0001	1054.046	1.6665	9.8629	5.9182	1756.602	0.6285	0.641
1.061	2	44.91	-0.19	121.24	0.0001	4538	10	20.92	464.7		1.061	2	44.9	10.161	0.0001	1075.238	1.6728	9.8629	5.8961	1798.647	0.6248	0.6445
1.071	2	45.91	-0.18	120.52	0.0002	4499	10	20.92	468.1		1.071	2	45.9	10.162	0.0002	1083.6	1.6843	9.8601	5.854	1825.151	0.6181	0.6391
1.081	2	46.91	-0.24	120.61	0.0002	4555	10	20.93	468.9		1.081	2	46.9	10.156	0.0002	1081.922	1.6685	9.8769	5.9195	1805.233	0.6273	0.6379
1.091	2	47.91	-0.24	121.64	0.0002	4561	9	20.91	470.1		1.091	2	47.9	10.156	0.0002	1070.179	1.6668	8.8892	5.3333	1783.731	0.6283	0.636
1.101	2	48.91	-0.09	132.81	0.0001	4606	9	20.91	470.7		1.101	2	48.9	10.171	0.0001	958.895	1.651	8.8515	5.3611	1583.172	0.6374	0.6351
1.111	2	49.91	0.01	125.05	0.0001	4636	10	20.92	471.6		1.111	2	49.9	10.181	0.0001	1035.602	1.6407	9.8071	5.9775	1699.084	0.6435	0.6337
1.121	2	50.91	0.1	93.79	0.0002	4636	10	20.92	467.5		1.121	2	50.9	10.19	0.0002	1519.761	1.6392	9.7821	5.9675	2491.229	0.6443	0.64
1.131	2	51.91	0.11	94.11	0.0009	4584	10	20.92	465		1.131	2	51.9	10.191	0.0009	1512.691	1.6542	9.7793	5.9116	2502.367	0.6356	0.644
1.141	2	52.91	0.16	94.24	0.0014	4580	10	20.92	462.9		1.141	2	52.9	10.196	0.0014	1510.519	1.6546	9.7655	5.902	2499.325	0.6354	0.6472
1.151	2	53.91	0.21	94.9	0.0009	4487	10	20.92	465.9		1.151	2	53.9	10.201	0.0009	1496.626	1.6815	9.7517	5.7993	2516.601	0.6198	0.6425
1.161	2	54.91	0.46	98.57	0.0002	4367	10	20.91	467.9		1.161	2	54.9	10.226	0.0002	1423.639	1.7142	9.6831	5.6488	2440.364	0.6008	0.6394
1.171	2	55.91	0.54	93.49	0.0002	4395	10	20.92	465		1.171	2	55.9	10.234	0.0002	1533.184	1.7041	9.6613	5.6693	2612.77	0.6066	0.6439
1.181	2	56.91	0.62	93.94	0.0007	4436	11	20.92	465.7		1.181	2	56.9	10.242	0.0007	1524.107	1.6902	10.6035	6.2734	2576.096	0.6147	0.6429
1.191	2	57.91	0.66	93.91	0.001	4303	10	20.92	462.1		1.191	2	57.9	10.246	0.001	1525.383	1.7309	9.6287	5.5627	2640.326	0.5911	0.6486
1.201	2	58.91	0.68	93.34	0.0004	4033	10	20.92	467.8		1.201	2	58.9	10.248	0.0004	1538.739	1.8198	9.6232	5.2882	2800.156	0.5396	0.6395
1.211	2	59.91	0.68	92.47	0.0002	4190	10	20.92	471.4		1.211	2	59.9	10.248	0.0002	1559.105	1.767	9.6232	5.446	2754.967	0.5702	0.6341
1.221	2	60.91	0.75	93.58	0.0003	4489	10	20.92	476.6		1.221	2	60.9	10.255	0.0003	1534.261	1.6721	9.6043	5.744	2565.379	0.6253	0.6262
1.231	2	61.91	0.71	94.11	0.0009	4465	10	20.92	475.6		1.231	2	61.9	10.251	0.0009	1521.597	1.6799	9.6151	5.7235	2556.2	0.6207	0.6276
1.241	2	62.91	0.68	94.11	0.0008	4439	10	20.92	475.4		1.241	2	62.9	10.248	0.0008	1521.152	1.6883	9.6232	5.6999	2568.205	0.6158	0.6279
1.251	2	63.91	0.63	94.1	0.0007	4459	11	20.92	476.7		1.251	2	63.9	10.243	0.0007	1520.635	1.6831	10.6005	6.2983	2559.342	0.6189	0.626
1.261	2	64.91	0.58	94.22	0.0005	4462	10	20.91	476.3		1.261	2	64.9	10.238	0.0005	1517.19	1.683	9.6504	5.7341	2553.412	0.6189	0.6266
1.271	2	65.91	0.53	94.08	0.0004	4445	10	20.92	474.9		1.271	2	65.9	10.233	0.0004	1519.602	1.689	9.664	5.7218	2566.569	0.6154	0.6287
1.281	2	66.91	0.48	94.42	0.0002	4503	10	20.92	474.1		1.281	2	66.9	10.228	0.0002	1511.229	1.6723	9.6776	5.7871	2527.185	0.6251	0.63
1.291	2	67.91	0.43	94.33	0.0002	4565	10	20.91	474.2		1.291	2	67.9	10.223	0.0002	1512.502	1.6547	9.6913	5.857	2502.67	0.6354	0.6297
1.301	2	68.91	0.41	94.52	0.0003	4514	10	20.91	476.9		1.301	2	68.9	10.221	0.0003	1507.967	1.6701	9.6967	5.806	2518.489	0.6264	0.6258
1.311	2	69.91	0.41	94.32	0.0002	4589	10	20.91	479.3		1.311	2	69.9	10.221	0.0002	1512.43	1.6479	9.6967	5.8842	2492.375	0.6393	0.6221
1.321	2	70.91	0.25	99.19	0.0001	4490	10	20.91	481.7		1.321	2	70.9	10.205	0.0001	1408.558	1.68	9.7407	5.7982	2366.31	0.6207	0.6187
1.331	2	71.91	0.22	93.95	0.0002	4499	11	20.91	483.7		1.331	2	71.9	10.202	0.0002	1517.929	1.6777	10.7238	6.3918	2546.684	0.622	0.6158
1.341	2	72.91	0.15	99.59	0.0001	4559	11	20.92	483.9		1.341	2	72.9	10.195	0.0001	1399.451	1.661	10.7451	6.4691	2324.453	0.6317	0.6154
1.351	2	73.91	0.11	94.14	0.0004	4497	10	20.91	483.3		1.351	2	73.9	10.191	0.0004	1512.018	1.6801	9.7793	5.8205	2540.416	0.6206	0.6163
1.361	2	74.91	0.06	94.27	0.0009	4495	10	20.92	483.2		1.361	2	74.9	10.186	0.0009	1508.367	1.6816	9.7932	5.8238	2536.435	0.6197	0.6165
1.371	2	75.91	-0.02	94.45	0.0004	4535	10	20.91	483.6		1.371	2	75.9	10.178	0.0004	1503.175	1.6709	9.8154	5.8744	2511.641	0.6259	0.6159
1.381	2	76.91	-0.11	94.01	0.0003	4482	10	20.91	487.5		1.381	2	76.9	10.169	0.0003	1511.669	1.6883	9.8405	5.8286	2552.187	0.6158	0.6102
1.391	2	77.91	-0.2	100.17	0.0003	4497	10	20.91	488.5		1.391	2	77.9	10.16	0.0003	1383.631	1.6853	9.8657	5.8541	2331.799	0.6176	0.6089
1.401	2	78.91	-0.25	106.05	0.0003	4498	10	20.91	488.6		1.401	2	78.9	10.155	0.0003	1280.419	1.6858	9.8798	5.8606	2158.533	0.6173	0.6087
1.411	2	79.91	-0.34	93.72	0.0004	4474	10	20.91	487.7		1.411	2	79.9	10.146	0.0004	1514.781	1.6946	9.9051	5.8451	2566.925	0.6122	0.61
1.421	2	80.91	-0.4	94.02	0.0004	4548	10	20.91	486.7		1.421	2	80.9	10.14	0.0004	1507.134	1.6733	9.922	5.9297	2521.833	0.6246	0.6114
1.431	2	81.91	-0.49	93.88	0.0005	4519	10	20.91	486		1.431	2	81.9	10.131	0.0005	1508.937	1.6835	9.9475	5.909	2540.221	0.6186	0.6124
1.441	2	82.91	-0.55	94.13	0.0012	4584	10	20.91	484.7		1.441	2	82.9	10.125	0.0012	1502.448	1.665	9.9645	5.9846	2501.625	0.6293	0.6142
1.451	2	83.91	-0.61	94.31	0.0014	4470	10	20.91	484.6		1.451	2	83.9	10.119	0.0014	1497.558	1.7003	9.9816	5.8704	2546.343	0.6089	0.6144
1.461	2	84.91	-0.61	94.1	0.001	4468	10	20.92	484.5		1.461	2	84.9	10.119	0.001	1502.227	1.7009	9.9816	5.8683	2555.2	0.6085	0.6146
1.471	2	85.91	-0.65	94.15	0.0014	4419	10	20.91	482.7		1.471	2	85.9	10.115	0.0014	1500.519	1.7167	9.993	5.821	2575.97	0.5994	0.6171
