Geotek MSCL 7.9 - TN336_JPC5-05.raw created at 6:59:53 on 1/20/2016.											Geotek MSCL 7.9 - TN336_JPC5-05.out created at 12:50:26 on 1/20/2016.											
																						
																						
Core Depth	Section	Sect Depth	CTD 	Tr. Time 	PW Amp   	A Gamma  	Mag Sus  	Temp     	NC Res   		SB DEPTH	SECT NUM	SECT DEPTH	CT	PWAmp	PWVel	Den1	MS1	Msmass	Imp	FP	RES
m		cm	mm	µsec		cps	SI x 10^-5	°C	mV		m		cm	cm		m/s	g/cc	SI x 10^-5	x 10^-8 (m^3/kg)			Ohm.m
																						
0.002	1	0.2	4.08	999	0	1542	6	20.97	270.8		0.002	1	0.2	10.588	0	108.9009	1.4017	5.2565	3.7502	152.6416	0.7821	1.2523
0.012	1	1.2	4.41	999	0	1461	8	20.97	327.4		0.012	1	1.2	10.621	0	109.2403	1.4682	6.9464	4.7312	160.3893	0.7435	1.0037
0.022	1	2.2	4.04	999	0	1593	9	20.97	405.2		0.022	1	2.2	10.584	0	108.8598	1.3597	7.8934	5.8053	148.0153	0.8064	0.7827
0.032	1	3.2	3.43	999	0	1854	11	20.97	481.8		0.032	1	3.2	10.523	0	108.2324	1.1722	9.8088	8.3676	126.8738	0.9152	0.6396
0.042	1	4.2	2.29	999	0	1665	10	20.97	547.3		0.042	1	4.2	10.409	0	107.0598	1.3243	9.2007	6.9474	141.7836	0.8269	0.5514
0.052	1	5.2	-1.93	137.97	0.0001	1558	11	20.98	596.3		0.052	1	5.2	9.987	0.0001	897.8692	1.4717	11.4046	7.7494	1321.378	0.7415	0.4989
0.062	1	6.2	-2.8	98.46	0.0004	1517	11	20.97	629.2		0.062	1	6.2	9.9	0.0004	1380.368	1.522	11.6972	7.6854	2100.94	0.7123	0.4686
0.072	1	7.2	-2.86	98.78	0.0027	1526	12	20.96	652.6		0.072	1	7.2	9.894	0.0027	1373.404	1.5146	12.7831	8.4398	2080.18	0.7166	0.4491
0.082	1	8.2	-2.87	100.22	0.0025	1470	12	20.97	663.9		0.082	1	8.2	9.893	0.0025	1346.353	1.5676	12.7868	8.1572	2110.48	0.6859	0.4402
0.092	1	9.2	-2.81	93.87	0.0036	1499	12	20.97	668.2		0.092	1	9.2	9.899	0.0036	1474.601	1.539	12.7644	8.294	2269.386	0.7024	0.4369
0.102	1	10.2	-2.86	94.46	0.0041	1509	12	20.97	667.7		0.102	1	10.2	9.894	0.0041	1461.016	1.5304	12.7831	8.3528	2235.915	0.7074	0.4373
0.112	1	11.2	-2.92	94.44	0.0022	1522	12	20.97	666.9		0.112	1	11.2	9.888	0.0022	1460.561	1.5192	12.8055	8.429	2218.927	0.7139	0.4379
0.122	1	12.2	-2.86	94.19	0.001	1493	11	20.98	666.9		0.122	1	12.2	9.894	0.001	1466.864	1.5454	11.7178	7.5823	2266.927	0.6987	0.4379
0.132	1	13.2	-2.87	98.83	0.0005	1469	11	20.98	667.8		0.132	1	13.2	9.893	0.0005	1372.312	1.5685	11.7212	7.4728	2152.497	0.6853	0.4372
0.142	1	14.2	-2.92	93.69	0.0012	1495	11	20.98	664.9		0.142	1	14.2	9.888	0.0012	1476.923	1.5445	11.7384	7.6003	2281.063	0.6993	0.4394
0.152	1	15.2	-2.92	94.31	0.0013	1467	11	20.98	663.6		0.152	1	15.2	9.888	0.0013	1463.371	1.5712	11.7384	7.4708	2299.315	0.6837	0.4404
0.162	1	16.2	-3.06	94.28	0.0018	1473	11	20.98	661.5		0.162	1	16.2	9.874	0.0018	1461.948	1.5677	11.7867	7.5186	2291.859	0.6858	0.442
0.172	1	17.2	-3.06	94.38	0.0011	1551	10	20.98	657.4		0.172	1	17.2	9.874	0.0011	1459.787	1.4948	10.7152	7.1681	2182.147	0.7281	0.4453
0.182	1	18.2	-3.06	99.01	0.0006	1578	10	20.98	652.9		0.182	1	18.2	9.874	0.0006	1366.265	1.4707	10.7152	7.2859	2009.323	0.7421	0.4488
0.192	1	19.2	-3.02	98.94	0.0003	1577	10	20.98	648.3		0.192	1	19.2	9.878	0.0003	1368.144	1.471	10.7026	7.2759	2012.483	0.7419	0.4525
0.202	1	20.2	-2.95	97.67	0.0002	1556	9	20.98	647.2		0.202	1	20.2	9.885	0.0002	1393.628	1.4887	9.6126	6.4572	2074.646	0.7316	0.4535
0.212	1	21.2	-3	99.63	0.0002	1488	9	20.98	647.7		0.212	1	21.2	9.88	0.0002	1355.467	1.5524	9.6267	6.2013	2104.175	0.6947	0.453
0.222	1	22.2	-2.9	94.05	0.0004	1509	9	20.98	648.6		0.222	1	22.2	9.89	0.0004	1469.321	1.531	9.5985	6.2694	2249.535	0.7071	0.4523
0.232	1	23.2	-2.93	94.42	0.0005	1484	9	20.98	647.2		0.232	1	23.2	9.887	0.0005	1460.845	1.5551	9.607	6.1778	2271.719	0.6931	0.4535
0.242	1	24.2	-2.9	106.74	0.0003	1503	9	20.98	646.7		0.242	1	24.2	9.89	0.0003	1236.25	1.5366	9.5985	6.2465	1899.649	0.7038	0.4539
0.252	1	25.2	-2.9	99.05	0.0003	1473	9	20.98	651.8		0.252	1	25.2	9.89	0.0003	1367.722	1.5651	9.5985	6.1327	2140.674	0.6873	0.4498
0.262	1	26.2	-2.79	107.49	0.0004	1512	9	20.98	656.5		0.262	1	26.2	9.901	0.0004	1226.13	1.5265	9.5677	6.2677	1871.694	0.7097	0.446
0.272	1	27.2	-2.77	107.8	0.0002	1484	9	20.99	656.3		0.272	1	27.2	9.903	0.0002	1221.688	1.5526	9.5621	6.1589	1896.742	0.6946	0.4461
0.282	1	28.2	-2.8	108.03	0.0001	1476	10	20.99	655.1		0.282	1	28.2	9.9	0.0001	1217.862	1.5607	10.6339	6.8136	1900.688	0.6899	0.4471
0.292	1	29.2	-2.74	112.13	0.0002	1493	9	20.99	657.6		0.292	1	29.2	9.906	0.0002	1160.089	1.5436	9.5537	6.1894	1790.658	0.6998	0.4452
0.302	1	30.2	-2.75	122.52	0.0002	1493	10	20.98	660.6		0.302	1	30.2	9.905	0.0002	1034.141	1.5437	10.6183	6.8784	1596.411	0.6997	0.4428
0.312	1	31.2	-2.69	132.49	0.0001	1497	9	20.99	640.5		0.312	1	31.2	9.911	0.0001	937.2104	1.539	9.5397	6.1987	1442.368	0.7024	0.459
0.322	1	32.2	-2.64	129.56	0.0001	1488	10	20.99	632.6		0.322	1	32.2	9.916	0.0001	964.4037	1.5467	10.5842	6.843	1491.668	0.698	0.4657
0.332	1	33.2	-2.64	157.48	0	1494	10	20.99	623.1		0.332	1	33.2	9.916	0	758.4518	1.5411	10.5842	6.8682	1168.813	0.7012	0.474
0.342	1	34.2	-2.61	145.52	0	1499	10	20.99	615.3		0.342	1	34.2	9.919	0	835.0732	1.5359	10.575	6.8853	1282.572	0.7042	0.481
0.352	1	35.2	-2.56	145.17	0	1496	9	20.99	610.6		0.352	1	35.2	9.924	0	837.9633	1.5379	9.5036	6.1795	1288.725	0.7031	0.4853
0.362	1	36.2	-2.6	116.63	0.0001	1487	9	20.99	608.5		0.362	1	36.2	9.92	0.0001	1103.571	1.5471	9.5147	6.1502	1707.279	0.6978	0.4872
0.372	1	37.2	-2.55	106.98	0.0002	1469	10	20.99	606.7		0.372	1	37.2	9.925	0.0002	1236.914	1.5635	10.5565	6.752	1933.867	0.6882	0.4889
0.382	1	38.2	-2.55	98.41	0.0003	1470	10	20.99	603.5		0.382	1	38.2	9.925	0.0003	1384.819	1.5625	10.5565	6.7561	2163.779	0.6888	0.492
0.392	1	39.2	-2.55	104.6	0.0002	1475	10	20.99	599.8		0.392	1	39.2	9.925	0.0002	1274.724	1.5577	10.5565	6.7769	1985.64	0.6916	0.4955
0.402	1	40.2	-2.54	99.13	0.0002	1443	9	20.99	596.8		0.402	1	40.2	9.926	0.0002	1371.184	1.5886	9.498	5.9789	2178.257	0.6737	0.4984
0.412	1	41.2	-2.6	100.28	0.0002	1435	10	21	592.6		0.412	1	41.2	9.92	0.0002	1348.926	1.5975	10.5719	6.6179	2154.851	0.6685	0.5025
0.422	1	42.2	-2.57	112.59	0.0002	1464	10	21	588.5		0.422	1	42.2	9.923	0.0002	1155.853	1.5686	10.5626	6.7338	1813.07	0.6853	0.5067
0.432	1	43.2	-2.59	121.38	0.0002	1463	9	21	585.2		0.432	1	43.2	9.921	0.0002	1048.288	1.5699	9.5119	6.059	1645.689	0.6845	0.51
0.442	1	44.2	-2.6	129	0.0001	1437	10	21	582.9		0.442	1	44.2	9.92	0.0001	970.0763	1.5955	10.5719	6.6262	1547.734	0.6697	0.5123
0.452	1	45.2	-2.6	143.16	0.0001	1440	10	21	580.6		0.452	1	45.2	9.92	0.0001	852.0872	1.5925	10.5719	6.6385	1356.96	0.6714	0.5147
0.462	1	46.2	-2.59	121.31	0.0001	1465	10	21	576.7		0.462	1	46.2	9.921	0.0001	1049.064	1.5679	10.5688	6.7405	1644.879	0.6856	0.5188
0.472	1	47.2	-2.6	121.37	0.0001	1482	10	21	574.2		0.472	1	47.2	9.92	0.0001	1048.293	1.5518	10.5719	6.8126	1626.743	0.695	0.5214
0.482	1	48.2	-2.51	142.28	0.0001	1505	10	21	571.1		0.482	1	48.2	9.929	0.0001	859.3561	1.5287	10.5442	6.8974	1313.713	0.7084	0.5247
0.492	1	49.2	-2.52	143.53	0	1482	10	21.01	568.8		0.492	1	49.2	9.928	0	850.0728	1.5506	10.5472	6.8022	1318.081	0.6957	0.5272
0.502	1	50.2	-2.47	144.58	0.0001	1478	10	21.01	567.8		0.502	1	50.2	9.933	0.0001	842.9225	1.5536	10.5319	6.7791	1309.549	0.694	0.5282
0.512	1	51.2	-2.64	143.91	0.0001	1501	10	21.01	567.1		0.512	1	51.2	9.916	0.0001	846.2916	1.5345	10.5842	6.8977	1298.607	0.7051	0.529
0.522	1	52.2	-2.6	128.47	0.0001	1486	11	21	568.4		0.522	1	52.2	9.92	0.0001	975.1302	1.548	11.6291	7.5123	1509.5	0.6972	0.5276
0.532	1	53.2	-2.6	144.57	0.0001	1455	10	21.01	570.6		0.532	1	53.2	9.92	0.0001	841.8908	1.5778	10.5719	6.7004	1328.341	0.6799	0.5252
0.542	1	54.2	-2.64	143.17	0.0001	1467	10	21	576.2		0.542	1	54.2	9.916	0.0001	851.6705	1.5668	10.5842	6.7553	1334.404	0.6863	0.5193
0.552	1	55.2	-2.63	142.84	0.0001	1475	10	21.01	579.5		0.552	1	55.2	9.917	0.0001	854.1774	1.559	10.5811	6.7873	1331.627	0.6909	0.5158
0.562	1	56.2	-2.55	128.15	0.0001	1474	10	21.01	582.2		0.562	1	56.2	9.925	0.0001	978.7004	1.5587	10.5565	6.7728	1525.461	0.691	0.5131
0.572	1	57.2	-2.56	124.94	0.0001	1447	10	21	584.7		0.572	1	57.2	9.924	0.0001	1010.591	1.585	10.5595	6.6622	1601.774	0.6758	0.5105
0.582	1	58.2	-2.63	110.86	0.0001	1449	10	21	594.5		0.582	1	58.2	9.917	0.0001	1178.911	1.5841	10.5811	6.6794	1867.567	0.6762	0.5006
0.592	1	59.2	-2.54	110.17	0.0001	1469	10	21.01	588.8		0.592	1	59.2	9.926	0.0001	1189.74	1.5633	10.5534	6.7507	1859.925	0.6883	0.5064
0.602	1	60.2	-2.55	111.25	0.0002	1458	10	21.01	575.1		0.602	1	60.2	9.925	0.0002	1174.417	1.5741	10.5565	6.7064	1848.644	0.6821	0.5204
0.612	1	61.2	-2.56	125.03	0.0001	1493	10	21.01	541.1		0.612	1	61.2	9.924	0.0001	1009.665	1.5408	10.5595	6.8535	1555.644	0.7014	0.5587
0.622	1	62.2	-2.51	121.98	0.0001	1453	10	21.01	537.8		0.622	1	62.2	9.929	0.0001	1042.524	1.5783	10.5442	6.6806	1645.442	0.6796	0.5627
0.632	1	63.2	-2.45	126.14	0.0001	1463	11	21.01	534.2		0.632	1	63.2	9.935	0.0001	999.4969	1.5677	11.5783	7.3857	1566.881	0.6858	0.5672
0.642	1	64.2	-2.44	143.34	0.0001	1434	10	21.01	531.2		0.642	1	64.2	9.936	0.0001	852.1441	1.5959	10.5227	6.5937	1359.915	0.6694	0.5709
0.652	1	65.2	-2.38	144.13	0.0001	1490	11	21	529.7		0.652	1	65.2	9.942	0.0001	846.9204	1.5408	11.5547	7.4992	1304.927	0.7014	0.5728
0.662	1	66.2	-2.39	128.86	0.0001	1461	11	21	527.7		0.662	1	66.2	9.941	0.0001	973.4626	1.5687	11.5581	7.3681	1527.028	0.6852	0.5753
0.672	1	67.2	-2.39	143.5	0.0001	1441	11	21.01	525.9		0.672	1	67.2	9.941	0.0001	851.4046	1.5882	11.5581	7.2776	1352.171	0.6739	0.5777
0.682	1	68.2	-2.28	143.15	0.0001	1425	11	21.02	523.4		0.682	1	68.2	9.952	0.0001	854.9094	1.6022	11.5211	7.1906	1369.77	0.6658	0.5808
0.692	1	69.2	-2.24	111.5	0.0001	1400	10	21.01	525.3		0.692	1	69.2	9.956	0.0001	1174.611	1.6268	10.4616	6.4309	1910.818	0.6515	0.5784
0.702	1	70.2	-2.09	94.38	0.0003	1446	11	21.01	530		0.702	1	70.2	9.971	0.0003	1474.128	1.5785	11.4577	7.2586	2326.9	0.6795	0.5724
0.712	1	71.2	-0.91	95.2	0.0008	1383	11	21.02	534.9		0.712	1	71.2	10.089	0.0008	1473.707	1.6225	11.0744	6.8254	2391.132	0.654	0.5663
0.722	1	72.2	2.04	999	0	1411	11	21.01	539.1		0.722	1	72.2	10.384	0	106.8027	1.549	10.1911	6.579	165.4409	0.6966	0.5611
0.732	1	73.2	1.35	101.2	0.0001	1368	11	21.01	539.2		0.732	1	73.2	10.315	0.0001	1385.307	1.602	10.3886	6.4846	2219.322	0.6659	0.561
0.742	1	74.2	1.18	999	0	1414	12	21.02	532.7		0.742	1	74.2	10.298	0	105.9182	1.559	11.387	7.3038	165.1316	0.6908	0.569
0.752	1	75.2	0.43	101.1	0.0001	1418	11	21.02	514.7		0.752	1	75.2	10.223	0.0001	1374.798	1.5666	10.6604	6.8049	2153.727	0.6864	0.5922
0.762	1	76.2	0.59	999	0	1403	12	21.01	480.1		0.762	1	76.2	10.239	0	105.3113	1.5788	11.5772	7.3327	166.2697	0.6793	0.6423
0.772	1	77.2	0.32	121.62	0.0001	1384	11	21.01	424.7		0.772	1	77.2	10.212	0.0001	1076.307	1.602	10.6936	6.6752	1724.221	0.6659	0.7411
0.782	1	78.2	0.34	95.94	0.0003	1413	11	21.01	353.7		0.782	1	78.2	10.214	0.0003	1476.011	1.5729	10.6875	6.795	2321.546	0.6828	0.9173
0.792	1	79.2	2.01	97.05	0.0003	1435	10	21.01	284.8		0.792	1	79.2	10.381	0.0003	1476.461	1.5265	9.2723	6.0742	2253.843	0.7097	1.1809
0.802	1	80.2	3.27	999	0	2864	10	21.01	245.7		0.802	1	80.2	10.507	0	108.0678	0.6454	8.9562	13.8774	69.7446	1.2208	1.4025
0.812	2	0.28	3.07	999	0	1634	11	21.02	246		0.812	2	0.3	10.487	0	107.8621	1.339	9.9059	7.398	144.4256	0.8185	1.4008
0.822	2	1.28	3.7	999	0	1547	10	21.02	288.2		0.822	2	1.3	10.55	0	108.5101	1.4024	8.8518	6.3116	152.1798	0.7816	1.1648
0.832	2	2.28	3.68	999	0	1469	11	21.02	355.8		0.832	2	2.3	10.548	0	108.4895	1.4711	9.7422	6.6223	159.6008	0.7418	0.911
0.842	2	3.28	3.35	999	0	1452	11	21.02	427.4		0.842	2	3.3	10.515	0	108.1501	1.4913	9.8303	6.5918	161.2827	0.7301	0.7356
0.852	2	4.28	2.68	999	0	1449	11	21.02	485.5		0.852	2	4.3	10.448	0	107.461	1.5036	10.0125	6.6589	161.582	0.7229	0.634
0.862	2	5.28	-1.37	95.89	0.0003	1462	11	21.02	527.4		0.862	2	5.3	10.043	0.0003	1452.35	1.5518	11.2217	7.2315	2253.709	0.695	0.5757
0.872	2	6.28	-1.97	95.21	0.0003	1433	11	21.02	555.4		0.872	2	6.3	9.983	0.0003	1458.011	1.5893	11.4179	7.184	2317.285	0.6732	0.542
0.882	2	7.28	-2.64	95.41	0.0003	1443	11	21.02	573.2		0.882	2	7.3	9.916	0.0003	1444.007	1.5902	11.6427	7.3215	2296.258	0.6727	0.5224
0.892	2	8.28	-2.81	96.88	0.0005	1486	11	21.02	586.3		0.892	2	8.3	9.899	0.0005	1411.32	1.5513	11.7007	7.5426	2189.356	0.6953	0.5088
0.902	2	9.28	-2.77	98.23	0.0009	1403	10	21.03	595		0.902	2	9.3	9.903	0.0009	1385.229	1.6324	10.6245	6.5085	2261.258	0.6483	0.5001
0.912	2	10.28	-2.76	95.44	0.0011	1449	11	21.01	599.9		0.912	2	10.3	9.904	0.0011	1441.63	1.5862	11.6836	7.3656	2286.75	0.675	0.4954
0.922	2	11.28	-2.81	95.24	0.0024	1477	10	21.01	603.4		0.922	2	11.3	9.899	0.0024	1445.109	1.5599	10.637	6.8191	2254.19	0.6903	0.4921
0.932	2	12.28	-2.76	96.24	0.0011	1452	11	21.02	603.6		0.932	2	12.3	9.904	0.0011	1425.036	1.5833	11.6836	7.3793	2256.241	0.6767	0.4919
0.942	2	13.28	-2.76	94.96	0.0012	1478	11	21.02	601.2		0.942	2	13.3	9.904	0.0012	1451.774	1.5581	11.6836	7.4984	2262.052	0.6913	0.4942
0.952	2	14.28	-2.76	95.24	0.0038	1421	11	21.01	599.6		0.952	2	14.3	9.904	0.0038	1445.839	1.614	11.6836	7.2388	2333.61	0.6589	0.4957
0.962	2	15.28	-2.76	95.42	0.0067	1458	11	21.01	600.8		0.962	2	15.3	9.904	0.0067	1442.05	1.5774	11.6836	7.4067	2274.737	0.6801	0.4946
0.972	2	16.28	-2.75	95.26	0.0064	1404	11	21.01	605.5		0.972	2	16.3	9.905	0.0064	1445.563	1.6311	11.6801	7.1611	2357.798	0.649	0.4901
0.982	2	17.28	-2.76	95.22	0.0088	1440	12	21.01	609		0.982	2	17.3	9.904	0.0088	1446.262	1.5951	12.7457	7.9906	2306.911	0.6699	0.4868
0.992	2	18.28	-2.76	95.43	0.0075	1398	11	21.01	614.2		0.992	2	18.3	9.904	0.0075	1441.84	1.6374	11.6836	7.1356	2360.807	0.6454	0.482
1.002	2	19.28	-2.76	95.59	0.0037	1472	11	21.01	614.6		1.002	2	19.3	9.904	0.0037	1438.49	1.5639	11.6836	7.4708	2249.635	0.688	0.4816
1.012	2	20.28	-2.76	95.47	0.0061	1450	12	21.02	612.6		1.012	2	20.3	9.904	0.0061	1441.001	1.5852	12.7457	8.0402	2284.339	0.6756	0.4835
1.022	2	21.28	-2.81	95.45	0.0053	1444	12	21.02	610.5		1.022	2	21.3	9.899	0.0053	1440.693	1.5919	12.7644	8.0181	2293.501	0.6717	0.4854
1.032	2	22.28	-2.76	95.76	0.0065	1418	11	21.02	610.6		1.032	2	22.3	9.904	0.0065	1434.946	1.617	11.6836	7.2253	2320.358	0.6572	0.4853
1.042	2	23.28	-2.71	95.44	0.0057	1422	12	21.02	612.5		1.042	2	23.3	9.909	0.0057	1442.358	1.6122	12.7271	7.8942	2325.368	0.66	0.4836
1.052	2	24.28	-2.71	95.62	0.0091	1414	12	21.02	618.5		1.052	2	24.3	9.909	0.0091	1438.589	1.6203	12.7271	7.855	2330.878	0.6553	0.4781
1.062	2	25.28	-2.71	95.58	0.008	1426	11	21.01	626.3		1.062	2	25.3	9.909	0.008	1439.425	1.6082	11.6665	7.2544	2314.873	0.6623	0.4712
1.072	2	26.28	-2.64	95.37	0.0098	1425	11	21.01	634.1		1.072	2	26.3	9.916	0.0098	1444.849	1.6081	11.6427	7.2402	2323.4	0.6624	0.4644
1.082	2	27.28	-2.66	95.32	0.0102	1400	12	21.02	643.6		1.082	2	27.3	9.914	0.0102	1445.611	1.6337	12.7085	7.7792	2361.636	0.6475	0.4564
1.092	2	28.28	-2.66	95.31	0.0143	1390	12	21.02	653.2		1.092	2	28.3	9.914	0.0143	1445.822	1.6439	12.7085	7.7306	2376.826	0.6416	0.4486
1.102	2	29.28	-2.61	95.64	0.0091	1403	12	21.03	662.4		1.102	2	29.3	9.919	0.0091	1439.623	1.6298	12.69	7.7863	2346.26	0.6498	0.4414
1.112	2	30.28	-2.62	95.64	0.0069	1438	11	21.02	668.4		1.112	2	30.3	9.918	0.0069	1439.478	1.5948	11.6359	7.2961	2295.692	0.6701	0.4367
1.122	2	31.28	-2.61	95.64	0.0064	1385	12	21.02	673.1		1.122	2	31.3	9.919	0.0064	1439.623	1.6483	12.69	7.699	2372.878	0.6391	0.4332
1.132	2	32.28	-2.61	95.64	0.0099	1412	11	21.02	686.8		1.132	2	32.3	9.919	0.0099	1439.623	1.6206	11.6325	7.1777	2333.109	0.6551	0.4232
1.142	2	33.28	-2.59	95.68	0.0074	1449	10	21.03	698.5		1.142	2	33.3	9.921	0.0074	1439.077	1.5835	10.5688	6.6743	2278.789	0.6766	0.4149
1.152	2	34.28	-2.56	95.72	0.0088	1457	10	21.02	709.3		1.152	2	34.3	9.924	0.0088	1438.678	1.5752	10.5595	6.7035	2266.242	0.6814	0.4075
1.162	2	35.28	-2.6	95.7	0.0079	1516	9	21.02	712.3		1.162	2	35.3	9.92	0.0079	1438.515	1.5199	9.5147	6.2602	2186.358	0.7135	0.4056
1.172	2	36.28	-2.56	95.69	0.008	1518	9	21.03	707.7		1.172	2	36.3	9.924	0.008	1439.304	1.5174	9.5036	6.263	2184.012	0.715	0.4086
1.182	2	37.28	-2.52	95.72	0.0077	1536	10	21.03	700.7		1.182	2	37.3	9.928	0.0077	1439.258	1.5003	10.5472	7.0301	2159.3	0.7249	0.4134
1.192	2	38.28	-2.55	95.73	0.0076	1483	10	21.03	690.8		1.192	2	38.3	9.925	0.0076	1438.614	1.5501	10.5565	6.8103	2229.95	0.696	0.4203
1.202	2	39.28	-2.55	95.63	0.0076	1512	9	21.02	678.4		1.202	2	39.3	9.925	0.0076	1440.703	1.5228	9.5008	6.239	2193.923	0.7118	0.4293
1.212	2	40.28	-2.58	95.55	0.0084	1457	9	21.02	665.1		1.212	2	40.3	9.922	0.0084	1441.942	1.5755	9.5091	6.0355	2271.84	0.6812	0.4393
1.222	2	41.28	-2.6	95.52	0.0082	1463	10	21.03	654.7		1.222	2	41.3	9.92	0.0082	1442.28	1.57	10.5719	6.7335	2264.437	0.6844	0.4474
1.232	2	42.28	-2.6	95.45	0.0083	1516	11	21.02	645.1		1.232	2	42.3	9.92	0.0083	1443.749	1.5199	11.6291	7.6513	2194.313	0.7135	0.4552
1.242	2	43.28	-2.61	95.42	0.0097	1498	11	21.02	635.1		1.242	2	43.3	9.919	0.0097	1444.234	1.5368	11.6325	7.5692	2219.527	0.7037	0.4636
1.252	2	44.28	-2.65	95.61	0.01	1481	12	21.03	621.9		1.252	2	44.3	9.915	0.01	1439.669	1.5535	12.7048	8.178	2236.579	0.694	0.475
1.262	2	45.28	-2.65	95.71	0.0088	1465	12	21.02	608.4		1.262	2	45.3	9.915	0.0088	1437.582	1.5689	12.7048	8.0979	2255.418	0.6851	0.4874
1.272	2	46.28	-2.56	95.69	0.0086	1493	12	21.03	594.1		1.272	2	46.3	9.924	0.0086	1439.304	1.5408	12.6715	8.2242	2217.61	0.7014	0.5011
1.282	2	47.28	-2.64	95.67	0.0084	1489	13	21.02	580.9		1.282	2	47.3	9.916	0.0084	1438.561	1.5458	13.7595	8.9013	2223.696	0.6985	0.5144
1.292	2	48.28	-2.54	95.73	0.008	1471	13	21.03	571		1.292	2	48.3	9.926	0.008	1438.759	1.5614	13.7194	8.7867	2246.451	0.6895	0.5247
1.302	2	49.28	-2.48	95.68	0.0077	1420	13	21.02	564.5		1.302	2	49.3	9.932	0.0077	1440.673	1.6105	13.6954	8.504	2320.159	0.661	0.5318
1.312	2	50.28	-2.51	95.7	0.0076	1447	13	21.03	555.5		1.312	2	50.3	9.929	0.0076	1439.82	1.5842	13.7074	8.6526	2280.948	0.6762	0.5419
1.322	2	51.28	-2.51	95.76	0.0073	1428	13	21.02	553.4		1.322	2	51.3	9.929	0.0073	1438.568	1.603	13.7074	8.5513	2305.968	0.6653	0.5443
1.332	2	52.28	-2.45	95.83	0.0078	1453	14	21.03	554		1.332	2	52.3	9.935	0.0078	1437.979	1.5774	14.736	9.3421	2268.228	0.6802	0.5436
1.342	2	53.28	-2.36	96	0.0074	1460	14	21.02	555.6		1.342	2	53.3	9.944	0.0074	1435.749	1.5692	14.6974	9.3665	2252.906	0.6849	0.5418
1.352	2	54.28	-2.45	96.01	0.007	1405	13	21.02	561.3		1.352	2	54.3	9.935	0.007	1434.243	1.6251	13.6834	8.42	2330.812	0.6525	0.5354
1.362	2	55.28	-2.47	95.92	0.0075	1435	14	21.03	565.7		1.362	2	55.3	9.933	0.0075	1435.82	1.5954	14.7446	9.2421	2290.658	0.6697	0.5305
1.372	2	56.28	-2.4	95.96	0.0076	1411	15	21.03	569.1		1.372	2	56.3	9.94	0.0076	1436.001	1.6182	15.7656	9.7425	2323.773	0.6565	0.5268
1.382	2	57.28	-2.3	95.8	0.0092	1394	15	21.02	568.4		1.382	2	57.3	9.95	0.0092	1440.776	1.6339	15.7198	9.6211	2354.05	0.6474	0.5275
1.392	2	58.28	-2.54	95.56	0.012	1354	15	21.03	565.8		1.392	2	58.3	9.926	0.012	1442.313	1.6796	15.8301	9.4247	2422.552	0.6209	0.5304
1.402	2	59.28	-2.61	95.31	0.014	1340	16	21.03	562.6		1.402	2	59.3	9.919	0.014	1446.551	1.6958	16.9199	9.9774	2453.09	0.6115	0.5339
1.412	2	60.28	-2.56	95.23	0.0158	1358	16	21.03	561		1.412	2	60.3	9.924	0.0158	1448.971	1.6757	16.8953	10.0824	2428.067	0.6231	0.5357
1.422	2	61.28	-2.66	95.24	0.0146	1399	17	21.03	557.9		1.422	2	61.3	9.914	0.0146	1447.299	1.6347	18.0037	11.0136	2365.874	0.6469	0.5392
1.432	2	62.28	-2.65	95.45	0.0119	1432	16	21.03	551.6		1.432	2	62.3	9.915	0.0119	1443.021	1.6012	16.9397	10.5791	2310.625	0.6663	0.5463
1.442	2	63.28	-2.7	95.47	0.0127	1435	17	21.03	544.2		1.442	2	63.3	9.91	0.0127	1441.874	1.5991	18.0248	11.272	2305.656	0.6676	0.5551
1.452	2	64.28	-2.75	95.6	0.0123	1459	18	21.03	533.1		1.452	2	64.3	9.905	0.0123	1438.426	1.5763	19.113	12.1252	2267.391	0.6808	0.5685
1.462	2	65.28	-2.74	95.39	0.0119	1455	17	21.03	522.2		1.462	2	65.3	9.906	0.0119	1442.972	1.58	18.0459	11.4212	2279.948	0.6786	0.5824
1.472	2	66.28	-2.67	95.47	0.013	1427	18	21.03	514.2		1.472	2	66.3	9.913	0.013	1442.31	1.6065	19.0683	11.8692	2317.137	0.6633	0.5929
