Geotek MSCL 7.9 - TN336_BB37-42.raw created at 14:03:52 on 1/25/2016.											Geotek MSCL 7.9 - TN336_BB37-42.out created at 14:10:36 on 1/25/2016.											
																						
																						
Core Depth	Section	Sect Depth	CTD 	Tr. Time 	PW Amp   	A Gamma  	Mag Sus  	Temp     	NC Res   		SB DEPTH	SECT NUM	SECT DEPTH	CT	PWAmp	PWVel	Den1	MS1	MS1	Imp	FP	RES
m		cm	mm	µsec		cps	SI x 10^-5	°C	mV		m		cm	cm		m/s	g/cc	SI x 10^-5	x 10^-8 (m^3/kg)			Ohm.m
																						
0.002	1	0.2	7.39	999	0	8006	14	20.43	271.8		0.002	1	0.2	10.919	0	112.2846	0.8727	11.2313	12.8696	97.9908	1.0889	1.1274
0.012	1	1.2	7.43	999	0	5167	18	20.43	324.4		0.012	1	1.2	10.923	0	112.3257	1.3827	14.4252	10.4327	155.3111	0.7931	0.9358
0.022	1	2.2	7.31	98.2	0.0004	5138	20	20.43	417.1		0.022	1	2.2	10.911	0.0004	1523.032	1.3911	16.0783	11.5577	2118.733	0.7882	0.7185
0.032	1	3.2	7.05	98.4	0.001	5148	23	20.43	513.2		0.032	1	3.2	10.885	0.001	1515.173	1.3921	18.6164	13.3733	2109.2	0.7877	0.5777
0.042	1	4.2	6.36	98.64	0.0002	5209	25	20.43	590.1		0.042	1	4.2	10.816	0.0002	1500.555	1.3863	20.6061	14.8637	2080.274	0.791	0.4988
0.052	1	5.2	1.08	95.47	0.0004	5197	26	20.43	645.1		0.052	1	5.2	10.288	0.0004	1492.962	1.4605	24.741	16.9402	2180.451	0.748	0.4542
0.062	1	6.2	0.5	95.03	0.0052	5221	26	20.44	677.9		0.062	1	6.2	10.23	0.0052	1494.085	1.4627	25.1476	17.1921	2185.458	0.7467	0.4311
0.072	1	7.2	0.43	94.86	0.0042	5218	27	20.44	701.5		0.072	1	7.2	10.223	0.0042	1496.779	1.4645	26.1664	17.8672	2192.023	0.7457	0.4159
0.082	1	8.2	0.41	95.31	0.0073	5182	27	20.43	711.7		0.082	1	8.2	10.221	0.0073	1486.691	1.4738	26.1812	17.7638	2191.158	0.7402	0.4096
0.092	1	9.2	0.39	94.86	0.0074	5197	26	20.43	715.2		0.092	1	9.2	10.219	0.0074	1496.193	1.4703	25.2258	17.1563	2199.925	0.7423	0.4075
0.102	1	10.2	0.21	95.05	0.014	5185	27	20.44	717.3		0.102	1	10.2	10.201	0.014	1489.414	1.476	26.3296	17.8387	2198.343	0.739	0.4062
0.112	1	11.2	0.21	95.24	0.0088	5218	27	20.44	718.8		0.112	1	11.2	10.201	0.0088	1485.294	1.4677	26.3296	17.9399	2179.895	0.7438	0.4054
0.122	1	12.2	0.26	95.26	0.0071	5211	27	20.44	719.3		0.122	1	12.2	10.206	0.0071	1485.589	1.4687	26.2924	17.9019	2181.875	0.7432	0.405
0.132	1	13.2	0.26	95.34	0.0106	5265	27	20.44	719.8		0.132	1	13.2	10.206	0.0106	1483.862	1.4552	26.2924	18.068	2159.306	0.751	0.4048
0.142	1	14.2	0.32	95.47	0.0111	5216	26	20.45	721.5		0.142	1	14.2	10.212	0.0111	1481.933	1.4666	25.2757	17.2345	2173.363	0.7444	0.4037
0.152	1	15.2	0.37	95.47	0.0101	5054	26	20.45	723.4		0.152	1	15.2	10.217	0.0101	1482.658	1.5073	25.24	16.7448	2234.865	0.7208	0.4026
0.162	1	16.2	0.39	95.62	0.0088	5176	26	20.44	724.3		0.162	1	16.2	10.219	0.0088	1479.728	1.4757	25.2258	17.0946	2183.57	0.7392	0.4021
0.172	1	17.2	0.42	95.63	0.01	5115	25	20.44	721.9		0.172	1	17.2	10.222	0.01	1479.948	1.4908	24.235	16.2565	2206.297	0.7304	0.4035
0.182	1	18.2	0.47	95.65	0.0086	5138	24	20.44	720.5		0.182	1	18.2	10.227	0.0086	1480.243	1.4842	23.2328	15.6538	2196.932	0.7342	0.4043
0.192	1	19.2	0.47	95.61	0.0086	5194	24	20.45	718.4		0.192	1	19.2	10.227	0.0086	1481.101	1.47	23.2328	15.8051	2177.15	0.7425	0.4056
0.202	1	20.2	0.47	95.62	0.0094	5171	20	20.45	716.1		0.202	1	20.2	10.227	0.0094	1480.886	1.4758	19.3607	13.119	2185.446	0.7391	0.407
0.212	1	21.2	0.52	95.6	0.0083	5147	23	20.44	714.6		0.212	1	21.2	10.232	0.0083	1482.039	1.4811	22.2334	15.0109	2195.119	0.736	0.4078
0.222	1	22.2	0.58	95.46	0.0093	5134	23	20.44	717.7		0.222	1	22.2	10.238	0.0093	1485.922	1.4836	22.1959	14.9608	2204.508	0.7346	0.406
0.232	1	23.2	0.63	95.65	0.0082	5079	23	20.43	719.5		0.232	1	23.2	10.243	0.0082	1482.559	1.497	22.1646	14.8059	2219.416	0.7268	0.405
0.242	1	24.2	0.63	95.66	0.0079	5103	22	20.44	720.7		0.242	1	24.2	10.243	0.0079	1482.344	1.4908	21.2009	14.221	2209.91	0.7304	0.4042
0.252	1	25.2	0.69	95.63	0.008	5054	22	20.43	717.9		0.252	1	25.2	10.249	0.008	1483.857	1.5026	21.1652	14.0854	2229.688	0.7235	0.4059
0.262	1	26.2	0.74	95.62	0.0076	4986	21	20.43	715.7		0.262	1	26.2	10.254	0.0076	1484.796	1.5197	20.1747	13.2751	2256.513	0.7136	0.4072
0.272	1	27.2	0.8	95.61	0.0062	5096	21	20.43	713.8		0.272	1	27.2	10.26	0.0062	1485.88	1.4902	20.1407	13.5159	2214.186	0.7308	0.4083
0.282	1	28.2	0.84	95.61	0.0065	5156	21	20.43	716.2		0.282	1	28.2	10.264	0.0065	1486.459	1.4742	20.1181	13.6464	2191.406	0.74	0.4069
0.292	1	29.2	0.84	95.75	0.0051	5038	22	20.42	722.5		0.292	1	29.2	10.264	0.0051	1483.451	1.5046	21.0761	14.0078	2232.004	0.7224	0.4032
0.302	1	30.2	0.8	95.65	0.0052	5032	21	20.42	725.7		0.302	1	30.2	10.26	0.0052	1485.02	1.5068	20.1407	13.3669	2237.563	0.7211	0.4013
0.312	1	31.2	0.84	95.75	0.0063	5052	21	20.42	691.8		0.312	1	31.2	10.264	0.0063	1483.451	1.501	20.1181	13.4035	2226.592	0.7245	0.422
0.322	1	32.2	0.87	96	0.0042	4985	20	20.41	679.9		0.322	1	32.2	10.267	0.0042	1478.543	1.5181	19.144	12.6106	2244.555	0.7146	0.4297
0.332	1	33.2	0.91	95.7	0.0068	4936	21	20.42	669.5		0.332	1	33.2	10.271	0.0068	1485.537	1.5305	20.0786	13.1187	2273.659	0.7073	0.4368
0.342	1	34.2	0.95	96.09	0.0072	5009	21	20.41	656.8		0.342	1	34.2	10.275	0.0072	1477.779	1.5106	20.0561	13.2771	2232.306	0.7189	0.4457
0.352	1	35.2	0.95	96.14	0.0065	5040	20	20.41	647.3		0.352	1	35.2	10.275	0.0065	1476.717	1.5025	19.101	12.7131	2218.724	0.7236	0.4526
0.362	1	36.2	0.95	96.08	0.0072	5031	20	20.42	640.4		0.362	1	36.2	10.275	0.0072	1477.992	1.5048	19.101	12.6932	2224.109	0.7223	0.4577
0.372	1	37.2	0.89	96.18	0.0074	4957	20	20.41	637.8		0.372	1	37.2	10.269	0.0074	1475.007	1.5252	19.1332	12.5446	2249.712	0.7104	0.4596
0.382	1	38.2	0.85	96.06	0.0074	4981	20	20.41	634.6		0.382	1	38.2	10.265	0.0074	1476.978	1.5194	19.1547	12.6064	2244.181	0.7138	0.4621
0.392	1	39.2	0.81	95.86	0.0086	4923	20	20.41	629		0.392	1	39.2	10.261	0.0086	1480.664	1.5355	19.1763	12.4885	2273.575	0.7045	0.4665
0.402	1	40.2	0.75	95.86	0.0078	4947	21	20.41	625.2		0.402	1	40.2	10.255	0.0078	1479.798	1.53	20.1691	13.1826	2264.051	0.7077	0.4694
0.412	1	41.2	0.76	95.86	0.007	4929	20	20.41	621.6		0.412	1	41.2	10.256	0.007	1479.942	1.5346	19.2032	12.5131	2271.189	0.705	0.4723
0.422	1	42.2	0.71	95.89	0.0075	4935	20	20.41	632.6		0.422	1	42.2	10.251	0.0075	1478.581	1.5338	19.2302	12.5378	2267.824	0.7055	0.4636
0.432	1	43.2	0.71	95.83	0.0078	5025	20	20.4	630.4		0.432	1	43.2	10.251	0.0078	1479.861	1.5099	19.2302	12.736	2234.463	0.7193	0.4653
0.442	1	44.2	0.66	95.86	0.008	4979	21	20.4	615.1		0.442	1	44.2	10.246	0.008	1478.499	1.5228	20.2202	13.2784	2251.442	0.7118	0.4775
0.452	1	45.2	0.66	95.83	0.0069	5003	20	20.4	602.9		0.452	1	45.2	10.246	0.0069	1479.14	1.5164	19.2573	12.699	2243.024	0.7155	0.4877
0.462	1	46.2	0.6	95.86	0.007	4956	20	20.4	604.8		0.462	1	46.2	10.24	0.007	1477.633	1.5298	19.2899	12.6094	2260.495	0.7078	0.4861
0.472	1	47.2	0.56	95.85	0.0074	4930	21	20.4	602.4		0.472	1	47.2	10.236	0.0074	1477.27	1.5374	20.2772	13.1895	2271.119	0.7034	0.4881
0.482	1	48.2	0.56	95.8	0.0074	4994	20	20.39	598.8		0.482	1	48.2	10.236	0.0074	1478.336	1.5203	19.3116	12.7025	2247.513	0.7133	0.4912
0.492	1	49.2	0.58	95.73	0.0095	4950	21	20.4	595.8		0.492	1	49.2	10.238	0.0095	1480.121	1.5317	20.2658	13.2308	2267.118	0.7067	0.4938
0.502	1	50.2	0.53	95.76	0.0099	4916	21	20.4	597.3		0.502	1	50.2	10.233	0.0099	1478.757	1.5416	20.2944	13.1645	2279.654	0.7009	0.4925
0.512	1	51.2	0.47	95.73	0.0093	4942	21	20.39	596.1		0.512	1	51.2	10.227	0.0093	1478.531	1.5355	20.3287	13.2391	2270.289	0.7045	0.4936
0.522	1	52.2	0.58	95.8	0.0077	4902	21	20.39	592.5		0.522	1	52.2	10.238	0.0077	1478.625	1.5446	20.2658	13.1201	2283.935	0.6992	0.4967
0.532	1	53.2	0.56	95.78	0.007	4934	21	20.39	591.2		0.532	1	53.2	10.236	0.007	1478.763	1.5363	20.2772	13.1987	2271.826	0.704	0.4978
0.542	1	54.2	1.05	96.08	0.005	4872	21	20.39	586.6		0.542	1	54.2	10.285	0.005	1479.43	1.5457	19.9999	12.9391	2286.751	0.6986	0.502
0.552	1	55.2	1.33	96.32	0.0031	4885	21	20.39	579.9		0.552	1	55.2	10.313	0.0031	1478.354	1.538	19.8439	12.9025	2273.684	0.703	0.508
0.562	1	56.2	3.48	97.13	0.0004	4843	21	20.39	571.2		0.562	1	56.2	10.528	0.0004	1491.852	1.5177	18.7004	12.3212	2264.257	0.7148	0.5162
0.572	1	57.2	2.96	96.96	0.0011	4763	21	20.39	558.5		0.572	1	57.2	10.476	0.0011	1488.068	1.547	18.9683	12.2612	2302.069	0.6978	0.5286
0.582	1	58.2	2.98	999	0	4787	20	20.39	539.7		0.582	1	58.2	10.478	0.00105	1497.344	1.5402	18.0552	11.723	165.9511	0.7018	0.548
0.592	1	59.2	2.88	96.04	0.001	4809	20	20.38	511.2		0.592	1	59.2	10.468	0.001	1506.62	1.5356	18.1048	11.7898	2313.623	0.7044	0.5801
0.602	1	60.2	3.15	96.13	0.0031	4783	19	20.38	466.2		0.602	1	60.2	10.495	0.0031	1508.553	1.5388	17.0727	11.0952	2321.286	0.7026	0.6391
0.612	1	61.2	3.11	96.51	0.0011	4831	18	20.38	397.8		0.612	1	61.2	10.491	0.0011	1499.786	1.5263	16.1919	10.6084	2289.166	0.7098	0.7552
0.622	1	62.2	3.22	96.57	0.005	4794	17	20.37	308		0.622	1	62.2	10.502	0.005	1500.071	1.5347	15.2463	9.9342	2302.208	0.7049	0.9884
0.632	1	63.2	6.83	999	0	4682	15	20.38	222.4		0.632	1	63.2	10.863	0	111.7087	1.5136	12.2114	8.0679	169.081	0.7172	1.392
0.642	1	64.2	7.46	999	0	6668	13	20.37	170.9		0.642	1	64.2	10.926	0	112.3565	1.0789	10.41	9.6484	121.2263	0.9693	1.8366
0.652	2	0.5	7.6	999	0	13609	12	20.38	166.5		0.652	2	0.5	10.94	0	112.5005	0.3131	9.5742	30.5782	35.2246	1.4135	1.8876
0.662	2	1.5	7.27	999	0	14120	12	20.38	205		0.662	2	1.5	10.907	0	112.1612	0.2772	9.6571	34.8442	31.0855	1.4344	1.5165
0.672	2	2.5	7.39	999	0	10768	13	20.38	268.5		0.672	2	2.5	10.919	0	112.2846	0.5535	10.4291	18.8409	62.1532	1.2741	1.1418
0.682	2	3.5	6.87	999	0	5193	15	20.38	337		0.682	2	3.5	10.867	0	111.7498	1.3836	12.1986	8.8164	154.6193	0.7926	0.8993
0.692	2	4.5	6.13	999	0	5301	16	20.38	403		0.692	2	4.5	10.793	0	110.9889	1.3676	13.2684	9.7017	151.7918	0.8018	0.745
0.702	2	5.5	1.99	122.69	0.0001	5249	17	20.38	462.1		0.702	2	5.5	10.379	0.0001	1079.684	1.4349	15.7717	10.9918	1549.188	0.7628	0.6451
0.712	2	6.5	0.88	121.97	0.0001	5320	18	20.38	507.6		0.712	2	6.5	10.268	0.0001	1076.197	1.4329	17.2247	12.0207	1542.102	0.764	0.5844
0.722	2	7.5	0.54	120.93	0.0001	5397	19	20.38	537.7		0.722	2	7.5	10.234	0.0001	1084.455	1.419	18.3564	12.9359	1538.865	0.772	0.5501
0.732	2	8.5	0.16	116.2	0.0002	5274	19	20.38	556.8		0.732	2	8.5	10.196	0.0002	1137.439	1.4544	18.5545	12.7576	1654.275	0.7515	0.5302
0.742	2	9.5	0.18	116.02	0.0003	5258	19	20.38	568.9		0.742	2	9.5	10.198	0.0003	1139.951	1.4581	18.544	12.7181	1662.136	0.7494	0.5184
0.752	2	10.5	0.16	116.14	0.0005	5284	20	20.38	577.9		0.752	2	10.5	10.196	0.0005	1138.201	1.4519	19.531	13.452	1652.563	0.753	0.5099
0.762	2	11.5	0.16	120.58	0.0004	5336	19	20.38	585.1		0.762	2	11.5	10.196	0.0004	1084.45	1.4391	18.5545	12.8929	1560.651	0.7604	0.5033
0.772	2	12.5	0.22	120.44	0.0003	5348	19	20.38	592.2		0.772	2	12.5	10.202	0.0003	1086.706	1.4353	18.523	12.9049	1559.797	0.7626	0.497
0.782	2	13.5	0.23	120.5	0.0004	5320	20	20.38	597.7		0.782	2	13.5	10.203	0.0004	1086.119	1.442	19.4924	13.5172	1566.234	0.7587	0.4921
0.792	2	14.5	0.27	120.69	0.0006	5205	19	20.37	599.4		0.792	2	14.5	10.207	0.0006	1084.351	1.4701	18.4968	12.5824	1594.061	0.7424	0.4907
0.802	2	15.5	0.31	120.89	0.0005	5299	19	20.38	599.4		0.802	2	15.5	10.211	0.0005	1082.476	1.4461	18.4759	12.7766	1565.342	0.7563	0.4907
0.812	2	16.5	0.31	120.76	0.0005	5277	20	20.38	597.8		0.812	2	16.5	10.211	0.0005	1083.97	1.4515	19.4483	13.3987	1573.39	0.7532	0.4921
0.822	2	17.5	0.37	120.84	0.0005	5281	20	20.38	595.9		0.822	2	17.5	10.217	0.0005	1083.687	1.4497	19.4154	13.393	1570.983	0.7543	0.4938
0.832	2	18.5	0.41	116.77	0.0006	5239	19	20.39	595.6		0.832	2	18.5	10.221	0.0006	1133.023	1.4595	18.4238	12.6231	1653.677	0.7485	0.4939
0.842	2	19.5	0.46	117.05	0.0006	5378	20	20.38	596		0.842	2	19.5	10.226	0.0006	1130.07	1.4247	19.3661	13.5931	1610.019	0.7687	0.4936
0.852	2	20.5	0.51	117.08	0.0005	5307	19	20.39	595.5		0.852	2	20.5	10.231	0.0005	1130.247	1.4413	18.3719	12.7469	1629.007	0.7591	0.494
0.862	2	21.5	0.56	117.05	0.0005	5279	19	20.38	593.8		0.862	2	21.5	10.236	0.0005	1131.175	1.4475	18.346	12.6746	1637.339	0.7555	0.4956
0.872	2	22.5	0.61	117.25	0.0006	5225	19	20.38	593.4		0.872	2	22.5	10.241	0.0006	1129.231	1.4602	18.3202	12.5466	1648.869	0.7482	0.4959
0.882	2	23.5	0.66	117.13	0.0005	5052	19	20.38	592.8		0.882	2	23.5	10.246	0.0005	1131.28	1.5036	18.2945	12.1672	1700.982	0.723	0.4964
0.892	2	24.5	0.71	117.11	0.0003	5126	19	20.38	591.2		0.892	2	24.5	10.251	0.0003	1132.082	1.4838	18.2687	12.3125	1679.737	0.7345	0.4979
0.902	2	25.5	0.74	117.41	0.0003	5140	20	20.38	588.4		0.902	2	25.5	10.254	0.0003	1128.674	1.4798	19.214	12.9846	1670.157	0.7368	0.5004
0.912	2	26.5	0.76	117.35	0.0004	5168	20	20.39	588.1		0.912	2	26.5	10.256	0.0004	1129.64	1.4724	19.2032	13.0425	1663.231	0.7411	0.5006
0.922	2	27.5	0.78	117.2	0.0003	5095	20	20.39	588.2		0.922	2	27.5	10.258	0.0003	1131.73	1.4907	19.1924	12.8748	1687.069	0.7305	0.5006
0.932	2	28.5	0.76	117.29	0.0003	5055	21	20.38	589.1		0.932	2	28.5	10.256	0.0003	1130.387	1.5013	20.1634	13.4302	1697.1	0.7243	0.4997
0.942	2	29.5	0.81	117.24	0.0003	5027	21	20.39	586.8		0.942	2	29.5	10.261	0.0003	1131.562	1.5079	20.1351	13.3529	1706.302	0.7205	0.5018
0.952	2	30.5	0.81	117.42	0.0004	5128	21	20.38	582.4		0.952	2	30.5	10.261	0.0004	1129.32	1.4818	20.1351	13.5882	1673.429	0.7356	0.5057
0.962	2	31.5	0.77	117.47	0.0004	5056	22	20.39	576.5		0.962	2	31.5	10.257	0.0004	1128.259	1.5009	21.1176	14.0696	1693.446	0.7245	0.5112
0.972	2	32.5	0.81	117.35	0.0004	5061	22	20.39	576.3		0.972	2	32.5	10.261	0.0004	1130.191	1.4991	21.0939	14.0715	1694.216	0.7256	0.5114
0.982	2	33.5	0.82	117.37	0.0003	5115	22	20.39	572.6		0.982	2	33.5	10.262	0.0003	1130.052	1.485	21.088	14.2008	1678.107	0.7338	0.5149
0.992	2	34.5	0.81	117.55	0.0003	5061	22	20.39	568		0.992	2	34.5	10.261	0.0003	1127.706	1.4991	21.0939	14.0715	1690.492	0.7256	0.5192
1.002	2	35.5	0.83	117.39	0.0004	5192	22	20.39	561.5		1.002	2	35.5	10.263	0.0004	1129.913	1.4653	21.082	14.3875	1655.662	0.7452	0.5256
1.012	2	36.5	0.85	117.24	0.0003	5057	23	20.39	548.9		1.012	2	36.5	10.265	0.0003	1132.003	1.4995	22.0279	14.6901	1697.447	0.7253	0.5383
1.022	2	37.5	0.81	117.44	0.0003	4989	23	20.39	541.4		1.022	2	37.5	10.261	0.0003	1129.071	1.5179	22.0527	14.5283	1713.835	0.7147	0.5461
1.032	2	38.5	0.86	117.55	0.0003	4970	23	20.39	535.7		1.032	2	38.5	10.266	0.0003	1128.256	1.5222	22.0217	14.467	1717.441	0.7122	0.5523
1.042	2	39.5	0.86	117.58	0.0006	4961	22	20.39	532		1.042	2	39.5	10.266	0.0006	1127.884	1.5246	21.0643	13.8162	1719.574	0.7108	0.5563
1.052	2	40.5	0.83	117.71	0.0005	4976	22	20.39	527.8		1.052	2	40.5	10.263	0.0005	1125.946	1.5211	21.082	13.8601	1712.634	0.7128	0.5609
1.062	2	41.5	0.82	117.46	0.0002	4962	21	20.39	527.1		1.062	2	41.5	10.262	0.0002	1128.933	1.5249	20.1294	13.2002	1721.543	0.7106	0.5617
1.072	2	42.5	0.82	117.42	0.0003	5099	22	20.4	523.4		1.072	2	42.5	10.262	0.0003	1129.43	1.4891	21.088	14.1617	1681.822	0.7314	0.5659
1.082	2	43.5	0.78	117.78	0.0006	5123	21	20.4	520.4		1.082	2	43.5	10.258	0.0006	1124.534	1.4835	20.1521	13.584	1668.262	0.7346	0.5693
1.092	2	44.5	0.78	117.94	0.0005	5012	21	20.4	519		1.092	2	44.5	10.258	0.0005	1122.565	1.5123	20.1521	13.3255	1697.65	0.7179	0.5709
1.102	2	45.5	0.76	117.73	0.0003	5007	21	20.4	519.5		1.102	2	45.5	10.256	0.0003	1124.931	1.5139	20.1634	13.3188	1703.041	0.717	0.5703
1.112	2	46.5	0.77	117.38	0.0004	5015	21	20.4	519.6		1.112	2	46.5	10.257	0.0004	1129.377	1.5117	20.1577	13.3349	1707.228	0.7183	0.5703
1.122	2	47.5	0.77	117.78	0.0007	4941	21	20.4	519.3		1.122	2	47.5	10.257	0.0007	1124.424	1.5313	20.1577	13.164	1721.809	0.7069	0.5706
1.132	2	48.5	0.82	117.76	0.0006	5037	21	20.4	522		1.132	2	48.5	10.262	0.0006	1125.219	1.5052	20.1294	13.3736	1693.631	0.7221	0.5675
1.142	2	49.5	0.91	112.86	0.0003	5166	21	20.41	525.2		1.142	2	49.5	10.271	0.0003	1190.151	1.4707	20.0786	13.6523	1750.367	0.742	0.5639
1.152	2	50.5	0.91	117.54	0.0003	5103	21	20.41	528.1		1.152	2	50.5	10.271	0.0003	1128.929	1.4868	20.0786	13.505	1678.444	0.7327	0.5606
1.162	2	51.5	1.01	112.99	0.0004	5050	21	20.41	527.5		1.162	2	51.5	10.281	0.0004	1189.518	1.499	20.0224	13.3572	1783.077	0.7256	0.5612
1.172	2	52.5	1	117.95	0.0004	5042	20	20.4	530		1.172	2	52.5	10.28	0.0004	1124.849	1.5012	19.0743	12.7059	1688.645	0.7244	0.5585
1.182	2	53.5	1.07	117.81	0.0004	5048	20	20.41	531.9		1.182	2	53.5	10.287	0.0004	1127.342	1.4986	19.0369	12.7028	1689.477	0.7258	0.5564
1.192	2	54.5	1.21	117.51	0.0003	5082	21	20.41	536.3		1.192	2	54.5	10.301	0.0003	1132.6	1.4878	19.9105	13.3824	1685.1	0.7321	0.5516
1.202	2	55.5	1.41	117.59	0.0003	5095	21	20.41	538.6		1.202	2	55.5	10.321	0.0003	1133.802	1.4816	19.7996	13.3636	1679.841	0.7357	0.5492
1.212	2	56.5	1.52	117.84	0.0003	5104	21	20.42	537.1		1.212	2	56.5	10.332	0.0003	1131.902	1.4777	19.7389	13.3576	1672.639	0.738	0.5507
1.222	2	57.5	1.56	117.55	0.0002	5124	21	20.41	536.5		1.222	2	57.5	10.336	0.0002	1135.949	1.4721	19.7169	13.3941	1672.19	0.7413	0.5513
1.232	2	58.5	1.56	117.07	0.0002	5088	21	20.42	536.7		1.232	2	58.5	10.336	0.0002	1141.973	1.4812	19.7169	13.3111	1691.537	0.7359	0.5511
1.242	2	59.5	1.58	117.37	0.0002	5126	21	20.41	534.3		1.242	2	59.5	10.338	0.0002	1138.421	1.4713	19.7059	13.3938	1674.927	0.7417	0.5538
1.252	2	60.5	1.62	117.52	0.0003	5110	21	20.42	533.2		1.252	2	60.5	10.342	0.0003	1136.983	1.4748	19.684	13.3472	1676.786	0.7397	0.5549
1.262	2	61.5	1.56	116.89	0.0003	5086	20	20.42	531		1.262	2	61.5	10.336	0.0003	1144.249	1.4818	18.778	12.6728	1695.494	0.7356	0.5573
1.272	2	62.5	1.53	116.87	0.0003	4978	20	20.42	530.5		1.272	2	62.5	10.333	0.0003	1144.17	1.5102	18.7937	12.4443	1727.961	0.7191	0.5579
1.282	2	63.5	1.56	117.05	0.0003	5093	20	20.42	527.6		1.282	2	63.5	10.336	0.0003	1142.226	1.48	18.778	12.6882	1690.449	0.7367	0.5611
1.292	2	64.5	1.46	112.89	0.0005	5089	20	20.42	524.5		1.292	2	64.5	10.326	0.0005	1196.108	1.4824	18.8304	12.7025	1773.133	0.7353	0.5646
1.302	2	65.5	1.4	117.29	0.0007	5052	19	20.42	525		1.302	2	65.5	10.32	0.0007	1137.441	1.4928	17.9189	12.0035	1697.982	0.7292	0.5641
1.312	2	66.5	1.36	117.17	0.0004	5121	20	20.42	526.7		1.312	2	66.5	10.316	0.0004	1138.506	1.4757	18.8831	12.7962	1680.072	0.7392	0.5621
1.322	2	67.5	1.31	117.06	0.0003	5112	20	20.43	530.4		1.322	2	67.5	10.311	0.0003	1139.337	1.4787	18.9095	12.788	1684.727	0.7374	0.5581
1.332	2	68.5	1.16	117.05	0.0003	5172	21	20.42	530.5		1.332	2	68.5	10.296	0.0003	1137.805	1.4656	19.9384	13.604	1667.599	0.745	0.5579
1.342	2	69.5	1.11	117.39	0.0006	5129	20	20.43	529.1		1.342	2	69.5	10.291	0.0006	1132.996	1.4772	19.0156	12.8725	1673.693	0.7383	0.5595
1.352	2	70.5	1.06	117	0.0006	5170	20	20.43	529.3		1.352	2	70.5	10.286	0.0006	1137.329	1.4676	19.0422	12.9755	1669.094	0.7439	0.5593
1.362	2	71.5	1.01	116.97	0.0004	5032	21	20.42	526.6		1.362	2	71.5	10.281	0.0004	1137.153	1.5037	20.0224	13.3156	1709.913	0.7229	0.5623
1.372	2	72.5	0.96	117.03	0.0004	5062	23	20.44	522.8		1.372	2	72.5	10.276	0.0004	1135.846	1.4966	21.96	14.6732	1699.914	0.727	0.5665
1.382	2	73.5	0.85	117.07	0.0006	5019	21	20.43	520.3		1.382	2	73.5	10.265	0.0006	1134.129	1.5094	20.1125	13.3246	1711.884	0.7196	0.5694
1.392	2	74.5	0.88	116.84	0.0006	4948	21	20.43	518.7		1.392	2	74.5	10.268	0.0006	1137.35	1.5278	20.0955	13.1535	1737.609	0.709	0.5713
1.402	2	75.5	0.88	116.78	0.0006	4840	20	20.44	519.9		1.402	2	75.5	10.268	0.0006	1138.107	1.557	19.1386	12.2919	1772.037	0.692	0.5699
1.412	2	76.5	0.83	116.89	0.0007	4986	21	20.43	523.5		1.412	2	76.5	10.263	0.0007	1136.167	1.5184	20.1238	13.2532	1725.172	0.7144	0.5658
1.422	2	77.5	0.68	116.97	0.0007	4969	20	20.43	524.2		1.422	2	77.5	10.248	0.0007	1133.503	1.5251	19.2465	12.6194	1728.761	0.7105	0.565
1.432	2	78.5	0.63	117.08	0.0008	5142	20	20.44	527.3		1.432	2	78.5	10.243	0.0008	1131.573	1.4808	19.2736	13.0154	1675.669	0.7362	0.5615
1.442	2	79.5	0.63	117.02	0.0008	5113	20	20.43	529.4		1.442	2	79.5	10.243	0.0008	1132.324	1.4883	19.2736	12.9505	1685.181	0.7319	0.5592
1.452	2	80.5	0.52	116.99	0.0005	5042	20	20.44	532.1		1.452	2	80.5	10.232	0.0005	1131.483	1.5083	19.3334	12.8184	1706.571	0.7203	0.5562
